EEG 1,EEG 2,EEG 3,EEG 4,EEG 5,EEG 6,EEG 7,EEG 8,Accelerometer X,Accelerometer Y,Accelerometer Z,Gyroscope X,Gyroscope Y,Gyroscope Z,Battery Level,Counter,Validation Indicator
-11.761,-27.234,-44.464,-31.699,-10.297,-42.665,-32.547,-3.545,-0.021,0.980,-0.051,-1.556,0.977,1.984,100.000,103009.000,1.000
-7.407,-22.275,-37.374,-26.576,-5.891,-38.005,-28.004,-0.576,-0.019,0.977,-0.052,-1.862,0.671,1.953,100.000,103010.000,1.000
-2.726,-15.790,-29.111,-20.360,-1.547,-31.361,-23.857,2.913,-0.017,0.975,-0.051,-2.014,0.397,1.923,100.000,103011.000,1.000
-0.886,-12.501,-24.230,-18.103,-1.696,-28.985,-22.727,2.856,-0.015,0.973,-0.053,-2.075,0.122,1.892,100.000,103012.000,1.000
-3.277,-14.615,-26.392,-21.890,-5.492,-33.400,-25.312,-1.746,-0.013,0.968,-0.051,-2.228,0.000,1.862,100.000,103013.000,1.000
-4.723,-15.574,-28.300,-24.658,-6.673,-36.545,-27.616,-5.089,-0.008,0.965,-0.052,-2.350,-0.183,1.892,100.000,103014.000,1.000
-2.975,-11.668,-26.208,-21.528,-3.374,-32.546,-26.836,-2.067,-0.004,0.961,-0.054,-2.258,-0.305,1.892,100.000,103015.000,1.000
-1.272,-7.868,-24.337,-15.162,-0.198,-25.912,-24.368,5.130,-0.001,0.957,-0.055,-2.075,-0.305,1.862,100.000,103016.000,1.000
0.141,-8.205,-25.109,-9.155,-0.437,-23.653,-23.250,11.714,0.001,0.957,-0.055,-1.984,-0.305,1.831,100.000,103017.000,1.000
-0.333,-13.635,-31.740,-8.787,-5.243,-30.050,-28.107,12.452,0.004,0.959,-0.056,-1.770,-0.244,1.770,100.000,103018.000,1.000
-1.176,-17.788,-38.091,-11.961,-10.978,-37.962,-35.732,8.865,0.002,0.962,-0.055,-1.556,-0.183,1.617,100.000,103019.000,1.000
-3.472,-19.622,-42.897,-16.059,-16.337,-42.578,-41.629,5.169,0.004,0.964,-0.056,-1.434,0.031,1.709,100.000,103020.000,1.000
-6.319,-21.102,-46.664,-18.190,-19.966,-43.586,-43.256,5.518,0.003,0.969,-0.056,-1.404,0.061,1.587,100.000,103021.000,1.000
-3.557,-18.655,-44.426,-14.591,-18.078,-39.526,-39.495,11.882,0.002,0.970,-0.056,-1.404,0.122,1.587,100.000,103022.000,1.000
1.994,-13.718,-40.053,-9.868,-12.811,-34.629,-34.161,19.090,0.002,0.972,-0.054,-1.404,0.153,1.556,100.000,103023.000,1.000
8.257,-6.430,-33.204,-4.657,-5.807,-28.755,-27.113,24.354,0.001,0.975,-0.052,-1.373,0.214,1.526,100.000,103024.000,1.000
12.443,0.676,-27.275,-0.828,-1.126,-23.848,-22.142,23.775,0.000,0.976,-0.049,-1.404,0.305,1.434,100.000,103025.000,1.000
11.122,2.348,-27.775,-1.985,-2.524,-24.416,-24.063,16.052,0.000,0.980,-0.049,-1.465,0.336,1.343,100.000,103026.000,1.000
8.735,-0.247,-29.847,-4.358,-4.627,-26.961,-27.648,10.640,-0.002,0.981,-0.046,-1.709,0.275,1.160,100.000,103027.000,1.000
8.062,-4.135,-30.410,-5.565,-2.962,-27.956,-28.527,11.799,-0.002,0.982,-0.051,-1.862,0.305,1.129,100.000,103028.000,1.000
9.995,-4.035,-26.340,-3.898,1.673,-25.257,-26.202,14.919,-0.002,0.983,-0.049,-2.075,0.305,0.916,100.000,103029.000,1.000
9.237,-2.080,-23.275,-3.864,3.054,-23.516,-25.155,13.182,-0.005,0.985,-0.049,-2.228,0.244,0.793,100.000,103030.000,1.000
4.537,-1.612,-23.248,-7.406,0.348,-24.315,-25.822,7.629,-0.007,0.985,-0.049,-2.472,0.214,0.671,100.000,103031.000,1.000
4.717,0.962,-17.623,-7.601,0.604,-21.574,-23.039,5.337,-0.007,0.980,-0.049,-2.686,0.244,0.427,100.000,103032.000,1.000
8.140,2.057,-10.755,-5.853,2.849,-19.072,-20.750,4.145,-0.006,0.975,-0.050,-2.838,0.122,0.305,100.000,103033.000,1.000
8.980,-0.365,-7.499,-5.811,2.733,-21.046,-23.256,0.699,-0.003,0.970,-0.050,-2.808,0.153,0.153,100.000,103034.000,1.000
5.113,-3.447,-8.059,-9.136,-0.349,-26.177,-29.124,-3.811,-0.001,0.963,-0.052,-2.716,0.244,0.122,100.000,103035.000,1.000
1.093,-3.350,-6.816,-11.770,-1.051,-27.863,-31.451,-5.308,0.001,0.958,-0.052,-2.502,0.336,-0.061,100.000,103036.000,1.000
3.049,1.131,0.570,-7.978,4.166,-21.401,-26.170,-1.567,0.005,0.956,-0.054,-2.136,0.519,0.061,100.000,103037.000,1.000
4.987,2.576,3.220,-4.554,6.928,-16.023,-22.294,0.759,0.007,0.957,-0.052,-1.740,0.702,0.183,100.000,103038.000,1.000
4.215,0.113,0.327,-5.295,3.484,-16.709,-24.071,-0.399,0.008,0.954,-0.054,-1.343,0.885,0.214,100.000,103039.000,1.000
2.841,-3.050,-2.289,-8.113,-1.127,-20.537,-27.062,-0.856,0.006,0.955,-0.057,-1.068,1.099,0.336,100.000,103040.000,1.000
2.442,-5.069,-2.402,-9.463,-2.294,-22.281,-26.370,2.134,0.004,0.958,-0.054,-0.671,1.282,0.458,100.000,103041.000,1.000
4.391,-3.365,-0.104,-6.525,-0.604,-18.257,-21.269,7.969,0.001,0.962,-0.052,-0.244,1.495,0.458,100.000,103042.000,1.000
2.882,-2.098,-3.456,-4.811,-1.807,-15.064,-17.988,11.511,-0.003,0.966,-0.055,-0.031,1.495,0.519,100.000,103043.000,1.000
-3.186,-4.947,-12.506,-6.854,-5.887,-18.024,-19.170,11.355,-0.009,0.969,-0.054,0.092,1.526,0.458,100.000,103044.000,1.000
-9.862,-13.792,-25.480,-12.872,-11.080,-28.023,-25.054,7.213,-0.013,0.971,-0.050,0.275,1.465,0.488,100.000,103045.000,1.000
-8.987,-20.864,-35.292,-16.745,-13.100,-35.454,-29.076,3.373,-0.014,0.974,-0.051,0.305,1.312,0.366,100.000,103046.000,1.000
6.337,-12.329,-29.753,-8.783,-5.474,-27.370,-22.163,8.176,-0.015,0.975,-0.051,0.244,1.190,0.305,100.000,103047.000,1.000
23.515,3.269,-18.040,2.421,4.722,-13.757,-13.328,15.416,-0.018,0.978,-0.046,0.214,1.038,0.244,100.000,103048.000,1.000
29.526,8.770,-13.656,5.199,8.003,-9.913,-13.263,16.060,-0.018,0.979,-0.045,0.214,1.007,0.214,100.000,103049.000,1.000
25.640,2.620,-19.482,-0.017,5.325,-16.194,-18.471,13.033,-0.018,0.979,-0.046,0.061,0.732,0.153,100.000,103050.000,1.000
21.314,-3.134,-25.683,-4.455,2.754,-21.713,-20.665,12.302,-0.017,0.978,-0.048,-0.061,0.610,0.183,100.000,103051.000,1.000
23.145,-0.499,-21.216,-3.169,2.236,-19.432,-19.270,12.009,-0.017,0.976,-0.049,-0.214,0.366,0.122,100.000,103052.000,1.000
26.076,4.289,-12.456,-2.264,0.736,-15.531,-19.887,7.167,-0.014,0.970,-0.051,-0.214,0.122,0.122,100.000,103053.000,1.000
26.875,6.998,-5.318,-2.500,0.683,-13.314,-20.023,3.935,-0.011,0.963,-0.053,-0.061,-0.122,0.092,100.000,103054.000,1.000
22.353,5.233,-4.627,-4.162,1.769,-15.169,-18.761,5.856,-0.009,0.961,-0.054,0.092,-0.153,0.275,100.000,103055.000,1.000
13.021,0.058,-8.536,-7.768,0.131,-21.078,-19.037,6.838,-0.006,0.957,-0.054,0.214,-0.244,0.458,100.000,103056.000,1.000
8.755,-1.405,-6.869,-8.061,-2.845,-23.505,-20.016,4.176,-0.005,0.954,-0.055,0.580,-0.153,0.549,100.000,103057.000,1.000
10.544,-0.161,-2.445,-5.748,-5.765,-21.348,-22.083,-0.512,-0.003,0.954,-0.058,0.824,-0.153,0.763,100.000,103058.000,1.000
13.271,2.025,1.688,-2.715,-6.010,-16.724,-22.135,-1.116,-0.005,0.954,-0.060,1.129,-0.122,0.885,100.000,103059.000,1.000
10.839,2.834,2.312,-3.197,-5.396,-15.498,-20.805,2.247,-0.004,0.958,-0.058,1.434,-0.092,0.977,100.000,103060.000,1.000
3.555,-0.672,-2.301,-8.930,-8.762,-21.283,-23.577,2.381,-0.005,0.962,-0.055,1.648,-0.061,1.007,100.000,103061.000,1.000
0.643,-4.690,-6.414,-13.301,-14.033,-27.522,-29.649,-1.248,-0.004,0.968,-0.056,1.678,-0.031,1.190,100.000,103062.000,1.000
2.861,-6.558,-9.045,-13.878,-16.827,-29.650,-34.580,-4.156,-0.008,0.971,-0.058,1.740,-0.122,1.373,100.000,103063.000,1.000
5.481,-5.233,-8.168,-10.394,-14.127,-26.929,-33.745,-1.720,-0.008,0.973,-0.058,1.678,-0.183,1.495,100.000,103064.000,1.000
2.291,-5.096,-9.376,-8.169,-10.133,-25.398,-30.787,2.630,-0.011,0.975,-0.055,1.556,-0.305,1.678,100.000,103065.000,1.000
-4.848,-8.003,-15.802,-10.566,-8.656,-26.288,-29.951,3.482,-0.012,0.976,-0.057,1.495,-0.427,1.709,100.000,103066.000,1.000
-5.354,-8.155,-18.175,-11.613,-6.472,-21.426,-28.782,2.590,-0.014,0.980,-0.054,1.282,-0.641,1.740,100.000,103067.000,1.000
-1.406,-6.689,-16.630,-10.471,-4.144,-12.728,-27.826,1.680,-0.018,0.983,-0.054,0.977,-0.671,1.831,100.000,103068.000,1.000
-0.064,-5.613,-14.196,-8.393,-3.040,-5.385,-25.531,3.874,-0.019,0.985,-0.052,0.641,-0.977,1.831,100.000,103069.000,1.000
-5.058,-6.731,-16.041,-9.214,-4.381,-2.602,-22.345,7.509,-0.018,0.986,-0.050,0.366,-1.251,1.801,100.000,103070.000,1.000
-12.767,-9.816,-21.250,-12.725,-6.976,-3.409,-21.519,7.035,-0.019,0.986,-0.054,-0.031,-1.404,1.801,100.000,103071.000,1.000
-14.489,-10.763,-20.407,-12.104,-6.313,-4.124,-22.911,3.304,-0.021,0.986,-0.054,-0.397,-1.740,1.678,100.000,103072.000,1.000
-13.834,-13.071,-17.247,-10.251,-4.218,-8.694,-27.390,-1.768,-0.019,0.984,-0.052,-0.824,-2.136,1.617,100.000,103073.000,1.000
-15.696,-17.287,-15.555,-10.041,-3.543,-15.795,-31.700,-4.885,-0.019,0.979,-0.052,-1.068,-2.533,1.495,100.000,103074.000,1.000
-19.302,-18.917,-15.432,-10.361,-5.376,-20.295,-32.938,-4.674,-0.018,0.976,-0.052,-1.282,-2.747,1.282,100.000,103075.000,1.000
-20.192,-15.396,-13.861,-8.962,-7.566,-20.215,-31.484,-2.655,-0.013,0.970,-0.053,-1.495,-2.808,1.160,100.000,103076.000,1.000
-15.351,-10.496,-9.987,-6.371,-8.519,-18.702,-30.794,-1.344,-0.010,0.965,-0.057,-1.526,-2.960,1.129,100.000,103077.000,1.000
-12.179,-12.857,-13.336,-9.702,-13.220,-24.366,-37.305,-5.906,-0.007,0.962,-0.056,-1.404,-3.113,0.916,100.000,103078.000,1.000
-11.566,-16.317,-17.255,-13.655,-18.112,-31.090,-44.178,-11.499,-0.005,0.959,-0.058,-1.312,-3.174,0.793,100.000,103079.000,1.000
-8.799,-11.829,-11.194,-9.165,-15.485,-28.205,-41.008,-8.596,-0.004,0.960,-0.061,-1.099,-3.113,0.763,100.000,103080.000,1.000
-1.933,-1.484,1.928,2.150,-6.788,-17.226,-29.586,2.486,-0.002,0.958,-0.061,-0.854,-3.113,0.854,100.000,103081.000,1.000
7.623,8.281,12.804,11.919,-0.179,-7.070,-20.388,11.404,-0.004,0.960,-0.057,-0.671,-3.143,0.824,100.000,103082.000,1.000
10.782,9.149,10.301,10.874,-3.297,-7.543,-22.926,7.630,-0.005,0.964,-0.059,-0.549,-2.991,0.916,100.000,103083.000,1.000
6.862,3.697,1.694,4.506,-10.962,-14.646,-30.554,-2.210,-0.008,0.967,-0.059,-0.305,-2.960,1.099,100.000,103084.000,1.000
1.698,-1.028,-2.431,0.312,-14.777,-20.588,-32.909,-6.947,-0.006,0.971,-0.060,-0.183,-2.930,1.129,100.000,103085.000,1.000
0.675,-0.458,0.721,-0.509,-11.959,-20.937,-27.955,-5.882,-0.011,0.976,-0.059,-0.122,-2.930,1.251,100.000,103086.000,1.000
7.316,8.039,10.284,3.488,-2.732,-12.277,-18.288,-1.734,-0.013,0.980,-0.053,-0.275,-3.082,1.282,100.000,103087.000,1.000
13.080,15.430,14.942,6.781,5.522,-2.213,-11.529,0.781,-0.016,0.981,-0.055,-0.458,-3.235,1.404,100.000,103088.000,1.000
12.211,14.227,13.530,6.084,7.364,2.007,-10.001,-0.314,-0.017,0.983,-0.056,-0.641,-3.296,1.404,100.000,103089.000,1.000
7.901,7.224,12.636,3.345,4.478,1.202,-10.516,-3.399,-0.017,0.985,-0.051,-0.885,-3.540,1.404,100.000,103090.000,1.000
6.596,3.482,16.564,3.635,2.874,3.192,-8.212,-4.264,-0.018,0.985,-0.048,-1.099,-3.815,1.465,100.000,103091.000,1.000
9.304,5.245,21.459,7.030,3.589,10.280,-3.392,-2.211,-0.015,0.984,-0.048,-1.434,-3.998,1.373,100.000,103092.000,1.000
6.680,1.931,15.186,3.782,-0.590,11.128,-4.288,-4.352,-0.014,0.979,-0.053,-1.678,-4.150,1.434,100.000,103093.000,1.000
1.588,-3.653,8.286,-1.406,-5.728,7.991,-6.943,-8.260,-0.011,0.976,-0.052,-1.892,-4.395,1.373,100.000,103094.000,1.000
1.138,-1.898,13.726,0.952,-4.169,10.944,-3.248,-7.003,-0.011,0.971,-0.051,-1.923,-4.456,1.465,100.000,103095.000,1.000
1.508,3.893,22.837,6.684,-0.340,17.091,2.857,-3.997,-0.008,0.969,-0.050,-1.953,-4.395,1.251,100.000,103096.000,1.000
-2.141,4.631,21.812,6.816,-2.002,17.015,3.064,-5.867,-0.002,0.966,-0.055,-1.892,-4.364,1.251,100.000,103097.000,1.000
-10.243,-2.847,7.584,-1.411,-9.125,7.769,-3.260,-11.037,0.002,0.964,-0.052,-1.801,-4.425,1.129,100.000,103098.000,1.000
-12.893,-5.676,0.613,-4.787,-10.930,3.180,-3.788,-7.970,0.006,0.963,-0.054,-1.709,-4.364,1.251,100.000,103099.000,1.000
-8.346,0.980,9.161,1.805,-5.906,8.712,3.088,1.894,0.007,0.961,-0.057,-1.648,-4.028,1.251,100.000,103100.000,1.000
-6.871,4.764,16.380,6.727,-4.282,12.771,4.700,4.001,0.008,0.963,-0.058,-1.465,-3.845,1.160,100.000,103101.000,1.000
-10.551,1.004,11.477,3.997,-8.380,9.545,-2.314,-3.252,0.009,0.963,-0.058,-1.312,-3.510,1.129,100.000,103102.000,1.000
-15.032,-3.345,-1.107,-1.894,-12.322,3.298,-9.463,-8.516,0.010,0.965,-0.055,-1.038,-3.204,1.282,100.000,103103.000,1.000
-12.708,1.527,-2.798,1.056,-9.226,4.852,-5.793,-2.274,0.010,0.969,-0.058,-0.946,-2.930,1.373,100.000,103104.000,1.000
-5.711,10.351,7.909,11.781,-3.101,12.576,4.067,7.639,0.008,0.973,-0.056,-0.793,-2.625,1.373,100.000,103105.000,1.000
-3.654,10.957,13.391,16.615,-2.974,14.394,6.476,7.528,0.004,0.975,-0.056,-0.702,-2.380,1.434,100.000,103106.000,1.000
-8.160,4.294,5.602,10.580,-8.127,8.143,-0.615,-1.022,0.002,0.976,-0.056,-0.702,-2.197,1.434,100.000,103107.000,1.000
-14.923,-2.760,-8.457,0.061,-12.360,1.359,-8.577,-7.636,0.000,0.980,-0.053,-0.763,-1.923,1.434,100.000,103108.000,1.000
-12.249,0.234,-6.239,0.867,-8.399,7.859,-4.207,-3.522,-0.003,0.980,-0.054,-0.793,-1.862,1.343,100.000,103109.000,1.000
-0.806,11.919,13.789,12.654,0.555,25.176,10.233,4.971,-0.005,0.981,-0.054,-0.885,-1.801,1.251,100.000,103110.000,1.000
2.625,16.257,26.531,16.861,3.986,34.725,18.634,3.592,-0.007,0.979,-0.051,-1.038,-1.801,0.977,100.000,103111.000,1.000
-8.582,5.588,19.037,6.079,-1.183,28.469,14.116,-8.669,-0.008,0.979,-0.054,-1.068,-1.587,0.946,100.000,103112.000,1.000
-25.645,-12.945,0.773,-11.168,-12.904,12.217,1.471,-24.274,-0.009,0.977,-0.053,-1.099,-1.587,0.885,100.000,103113.000,1.000
-30.082,-20.743,-2.155,-17.086,-22.168,3.090,-5.404,-32.822,-0.010,0.975,-0.052,-1.129,-1.648,0.732,100.000,103114.000,1.000
-18.405,-11.623,15.736,-7.945,-22.317,8.363,-0.046,-30.082,-0.012,0.973,-0.052,-1.099,-1.587,0.610,100.000,103115.000,1.000
-7.903,-1.300,32.413,1.573,-19.054,15.580,7.976,-23.779,-0.011,0.974,-0.052,-1.007,-1.678,0.549,100.000,103116.000,1.000
-12.390,-6.112,30.201,-0.769,-21.241,10.854,6.394,-23.805,-0.011,0.971,-0.053,-0.977,-1.617,0.641,100.000,103117.000,1.000
-29.748,-24.840,10.297,-14.466,-29.144,-5.481,-5.612,-31.249,-0.010,0.966,-0.051,-0.854,-1.617,0.580,100.000,103118.000,1.000
-40.302,-34.295,-1.918,-22.408,-30.948,-13.625,-11.932,-33.877,-0.011,0.964,-0.049,-0.702,-1.556,0.641,100.000,103119.000,1.000
-34.450,-23.129,6.526,-15.916,-22.515,-4.476,-4.837,-26.247,-0.010,0.961,-0.050,-0.427,-1.526,0.610,100.000,103120.000,1.000
-22.303,-5.499,22.244,-3.561,-11.800,9.723,6.221,-15.854,-0.010,0.958,-0.050,-0.183,-1.648,0.549,100.000,103121.000,1.000
-14.712,3.604,28.928,4.822,-5.424,16.200,11.649,-8.674,-0.009,0.958,-0.055,0.122,-1.495,0.580,100.000,103122.000,1.000
-16.782,0.952,19.942,3.485,-6.208,10.775,8.664,-7.264,-0.010,0.958,-0.054,0.397,-1.465,0.641,100.000,103123.000,1.000
-18.425,0.109,14.448,2.394,-6.927,6.881,7.457,-5.922,-0.010,0.958,-0.055,0.824,-1.495,0.732,100.000,103124.000,1.000
-12.245,8.333,25.063,9.661,-2.539,13.797,14.086,-0.818,-0.009,0.961,-0.056,1.190,-1.556,0.854,100.000,103125.000,1.000
-7.095,14.303,36.250,16.537,0.012,20.659,19.316,1.076,-0.010,0.960,-0.057,1.495,-1.526,0.946,100.000,103126.000,1.000
-9.504,9.709,32.644,14.605,-4.010,16.770,14.742,-4.347,-0.010,0.960,-0.059,1.831,-1.312,1.007,100.000,103127.000,1.000
-16.115,-0.635,16.714,6.168,-10.479,5.324,3.565,-11.317,-0.011,0.960,-0.057,2.075,-1.343,1.038,100.000,103128.000,1.000
-16.537,-2.228,9.598,4.037,-11.000,2.135,-0.454,-9.609,-0.011,0.961,-0.061,2.411,-1.251,1.068,100.000,103129.000,1.000
-11.615,6.138,16.293,9.875,-7.148,10.281,5.359,-1.744,-0.013,0.962,-0.062,2.533,-1.221,1.099,100.000,103130.000,1.000
-9.129,12.407,23.629,14.793,-5.404,18.928,11.418,2.079,-0.012,0.965,-0.060,2.777,-1.251,1.160,100.000,103131.000,1.000
-8.209,11.516,25.663,16.351,-5.137,22.462,12.781,1.391,-0.010,0.967,-0.057,2.838,-1.251,1.129,100.000,103132.000,1.000
-10.220,3.606,19.089,13.148,-6.491,18.031,8.101,-1.291,-0.008,0.967,-0.063,3.082,-1.190,1.282,100.000,103133.000,1.000
-14.496,-3.101,9.884,8.695,-8.820,11.214,2.630,-3.140,-0.008,0.966,-0.060,3.052,-1.160,1.404,100.000,103134.000,1.000
-18.398,-1.687,4.003,6.378,-10.892,9.124,1.549,-3.187,-0.007,0.965,-0.059,3.082,-1.068,1.404,100.000,103135.000,1.000
-19.517,4.906,4.348,7.190,-11.630,12.202,4.205,-2.906,-0.007,0.963,-0.058,3.082,-0.977,1.556,100.000,103136.000,1.000
-16.871,7.917,10.753,10.046,-10.488,14.971,5.659,-4.484,-0.005,0.963,-0.059,3.265,-0.916,1.587,100.000,103137.000,1.000
-19.048,-1.476,9.669,6.206,-11.590,7.724,-0.859,-11.414,-0.003,0.962,-0.066,3.387,-0.763,1.678,100.000,103138.000,1.000
-25.362,-11.137,3.088,-0.703,-12.392,-1.180,-7.274,-16.737,-0.003,0.965,-0.066,3.479,-0.671,1.709,100.000,103139.000,1.000
-27.510,-4.751,4.421,-0.342,-8.632,3.482,-2.069,-13.411,0.000,0.968,-0.067,3.510,-0.549,1.770,100.000,103140.000,1.000
-24.670,10.270,14.728,5.975,-2.986,17.767,10.534,-6.908,0.000,0.970,-0.065,3.387,-0.427,1.862,100.000,103141.000,1.000
-21.107,15.655,23.630,9.596,1.338,24.331,17.279,-4.098,0.001,0.971,-0.069,3.326,-0.214,1.984,100.000,103142.000,1.000
-24.483,4.781,18.423,3.064,1.322,12.527,9.644,-8.411,0.000,0.970,-0.071,3.204,0.000,1.923,100.000,103143.000,1.000
-32.379,-6.111,8.503,-5.380,-0.682,-1.640,-1.467,-15.208,-0.002,0.971,-0.072,3.174,0.153,1.923,100.000,103144.000,1.000
-37.485,-3.237,8.094,-5.355,-0.152,1.058,-0.433,-16.702,-0.003,0.974,-0.070,3.082,0.336,1.770,100.000,103145.000,1.000
-36.592,6.973,16.243,1.486,4.183,15.920,12.398,-11.550,-0.006,0.976,-0.069,2.930,0.244,1.678,100.000,103146.000,1.000
-30.043,10.873,22.118,6.420,8.546,23.038,22.154,-6.695,-0.005,0.978,-0.071,2.838,0.427,1.434,100.000,103147.000,1.000
-26.666,0.977,13.374,0.671,5.172,10.630,16.301,-10.553,-0.003,0.977,-0.071,2.655,0.427,1.282,100.000,103148.000,1.000
-28.600,-9.230,1.634,-7.098,-1.681,-2.973,6.845,-16.045,-0.002,0.979,-0.070,2.472,0.580,1.068,100.000,103149.000,1.000
-31.628,-5.178,2.108,-5.766,-2.069,2.299,10.846,-12.583,-0.005,0.976,-0.072,2.197,0.763,0.610,100.000,103150.000,1.000
-34.428,5.101,9.632,0.536,2.776,17.490,23.341,-4.552,-0.003,0.976,-0.071,2.075,0.610,0.549,100.000,103151.000,1.000
-37.596,3.156,9.768,1.345,2.970,19.317,25.923,-3.498,-0.002,0.976,-0.071,1.953,0.702,0.427,100.000,103152.000,1.000
-43.202,-15.394,-5.494,-8.374,-6.544,0.086,11.365,-13.049,-0.003,0.975,-0.072,1.831,0.671,0.244,100.000,103153.000,1.000
-44.196,-27.346,-18.199,-15.484,-14.612,-14.881,-1.338,-20.280,-0.004,0.974,-0.069,1.740,0.854,0.153,100.000,103154.000,1.000
-38.535,-17.456,-14.427,-10.436,-12.725,-5.660,3.945,-16.438,-0.005,0.975,-0.071,1.556,0.793,0.031,100.000,103155.000,1.000
-34.364,-1.226,-3.605,-1.782,-7.091,12.608,17.979,-9.802,-0.005,0.973,-0.072,1.404,0.854,0.092,100.000,103156.000,1.000
-35.325,0.124,-0.654,-1.522,-7.393,13.729,21.611,-10.980,-0.007,0.969,-0.073,1.251,0.916,0.092,100.000,103157.000,1.000
-42.190,-17.030,-13.498,-13.649,-17.735,-7.442,8.256,-21.306,-0.006,0.967,-0.071,1.190,0.916,0.061,100.000,103158.000,1.000
-45.670,-29.337,-23.014,-21.444,-26.922,-21.266,-2.489,-27.295,-0.008,0.968,-0.073,1.129,0.824,-0.031,100.000,103159.000,1.000
-38.983,-20.246,-12.904,-11.990,-25.079,-6.773,5.494,-20.662,-0.008,0.968,-0.075,1.007,0.885,0.092,100.000,103160.000,1.000
-30.392,-5.044,3.377,2.443,-19.592,16.603,20.548,-11.738,-0.010,0.969,-0.076,1.007,0.763,0.153,100.000,103161.000,1.000
-29.633,-4.637,5.716,4.096,-21.931,20.390,23.241,-12.381,-0.011,0.969,-0.074,0.916,0.732,0.183,100.000,103162.000,1.000
-37.833,-18.523,-8.598,-8.572,-32.461,2.995,12.076,-21.495,-0.012,0.970,-0.075,0.885,0.641,0.183,100.000,103163.000,1.000
-40.642,-23.503,-14.541,-14.970,-36.354,-5.634,9.300,-23.604,-0.013,0.972,-0.073,0.763,0.549,0.183,100.000,103164.000,1.000
-32.062,-12.034,-1.283,-6.965,-28.344,9.187,24.269,-14.798,-0.015,0.977,-0.072,0.732,0.458,0.122,100.000,103165.000,1.000
-25.168,-2.963,12.752,-0.767,-22.341,26.166,37.119,-11.945,-0.018,0.976,-0.073,0.580,0.336,0.214,100.000,103166.000,1.000
-27.230,-6.332,14.538,-5.330,-25.741,26.443,33.319,-22.837,-0.018,0.978,-0.073,0.336,0.153,0.214,100.000,103167.000,1.000
-32.344,-12.863,7.927,-12.337,-29.472,16.534,22.729,-35.313,-0.019,0.981,-0.070,0.092,0.000,0.366,100.000,103168.000,1.000
-29.201,-9.042,9.849,-8.700,-22.852,16.095,22.721,-36.158,-0.018,0.980,-0.069,-0.031,-0.153,0.458,100.000,103169.000,1.000
-21.284,0.336,20.643,0.392,-12.346,25.512,30.811,-30.424,-0.017,0.979,-0.066,-0.183,-0.214,0.458,100.000,103170.000,1.000
-19.350,3.213,27.241,3.121,-7.789,32.033,36.000,-27.539,-0.019,0.975,-0.066,-0.336,-0.488,0.488,100.000,103171.000,1.000
-22.593,0.214,26.045,0.597,-7.681,33.121,36.849,-27.465,-0.019,0.971,-0.070,-0.397,-0.671,0.488,100.000,103172.000,1.000
-28.092,-5.513,17.113,-4.500,-10.970,30.780,33.458,-30.612,-0.020,0.968,-0.066,-0.397,-0.824,0.488,100.000,103173.000,1.000
-28.512,-7.120,13.793,-5.220,-13.810,33.054,31.834,-32.915,-0.021,0.964,-0.067,-0.244,-0.977,0.458,100.000,103174.000,1.000
-22.020,-2.057,23.285,0.646,-12.850,41.762,36.063,-30.660,-0.020,0.960,-0.066,-0.305,-1.221,0.458,100.000,103175.000,1.000
-17.356,3.159,34.127,5.848,-11.346,48.883,41.756,-27.506,-0.021,0.959,-0.067,0.000,-1.343,0.397,100.000,103176.000,1.000
-18.325,5.045,36.414,6.612,-11.931,52.146,46.457,-25.472,-0.021,0.956,-0.069,0.092,-1.587,0.427,100.000,103177.000,1.000
-23.975,1.832,27.626,2.040,-15.643,51.586,48.593,-25.371,-0.020,0.955,-0.066,0.458,-1.831,0.458,100.000,103178.000,1.000
-27.475,-3.790,18.860,-2.405,-19.345,48.933,47.934,-26.272,-0.017,0.951,-0.067,0.793,-1.892,0.366,100.000,103179.000,1.000
-26.846,-9.808,14.673,-4.658,-21.704,42.699,42.882,-28.261,-0.018,0.948,-0.069,1.160,-1.953,0.336,100.000,103180.000,1.000
-25.062,-13.292,11.702,-5.839,-22.499,34.976,36.649,-29.364,-0.018,0.949,-0.066,1.526,-2.106,0.366,100.000,103181.000,1.000
-21.071,-8.807,11.668,-3.385,-18.823,35.007,37.367,-24.339,-0.015,0.949,-0.069,1.953,-2.106,0.366,100.000,103182.000,1.000
-19.255,-3.160,8.855,-1.924,-14.733,38.685,40.691,-17.872,-0.014,0.946,-0.071,2.380,-2.167,0.366,100.000,103183.000,1.000
-20.510,-3.374,2.482,-3.600,-14.752,36.646,38.494,-16.739,-0.012,0.945,-0.073,2.686,-2.106,0.244,100.000,103184.000,1.000
-22.580,-9.664,-5.566,-6.529,-18.961,26.727,29.680,-20.814,-0.011,0.947,-0.073,3.082,-1.923,0.366,100.000,103185.000,1.000
-25.031,-18.529,-13.632,-8.451,-24.320,16.460,20.587,-24.815,-0.010,0.948,-0.073,3.479,-2.014,0.427,100.000,103186.000,1.000
-26.526,-23.895,-17.278,-7.557,-27.696,14.258,17.217,-24.255,-0.007,0.950,-0.075,3.845,-1.862,0.427,100.000,103187.000,1.000
-31.255,-27.964,-21.555,-9.878,-32.557,13.124,14.281,-24.044,-0.003,0.950,-0.079,4.150,-1.770,0.610,100.000,103188.000,1.000
-36.862,-32.270,-24.536,-14.425,-37.768,8.480,10.212,-26.201,-0.002,0.952,-0.079,4.395,-1.526,0.580,100.000,103189.000,1.000
-36.932,-34.606,-21.825,-15.154,-37.616,5.049,10.031,-26.501,-0.003,0.954,-0.075,4.730,-1.343,0.702,100.000,103190.000,1.000
-32.208,-33.832,-16.454,-12.261,-32.135,6.022,13.673,-24.726,-0.001,0.956,-0.079,4.791,-1.129,0.793,100.000,103191.000,1.000
-27.918,-31.059,-12.892,-10.125,-26.669,9.317,15.497,-24.567,0.000,0.959,-0.080,4.944,-0.885,0.793,100.000,103192.000,1.000
-29.057,-30.751,-15.390,-12.351,-25.085,9.522,12.588,-26.254,0.000,0.962,-0.078,5.035,-0.702,0.824,100.000,103193.000,1.000
-29.302,-29.314,-14.789,-11.773,-22.547,9.798,11.895,-23.114,0.002,0.964,-0.078,5.035,-0.488,0.793,100.000,103194.000,1.000
-27.455,-26.582,-10.182,-8.582,-19.932,8.973,11.906,-19.299,0.004,0.964,-0.081,5.066,-0.183,0.793,100.000,103195.000,1.000
-30.097,-28.473,-11.408,-10.862,-23.391,1.774,4.843,-24.966,0.006,0.964,-0.080,5.127,0.214,0.946,100.000,103196.000,1.000
-32.322,-31.251,-16.107,-14.638,-28.343,-5.320,-4.151,-34.452,0.007,0.967,-0.080,4.944,0.580,1.190,100.000,103197.000,1.000
-29.018,-30.855,-20.018,-14.613,-28.493,-6.736,-7.981,-37.560,0.007,0.969,-0.082,4.974,0.885,1.282,100.000,103198.000,1.000
-20.970,-26.274,-17.620,-9.528,-23.038,-2.143,-5.359,-31.836,0.006,0.970,-0.082,4.791,1.221,1.373,100.000,103199.000,1.000
-14.618,-20.143,-11.100,-4.106,-16.558,3.371,-0.642,-23.205,0.002,0.972,-0.083,4.730,1.434,1.495,100.000,103200.000,1.000
-13.184,-14.902,-6.175,-1.921,-12.094,6.285,2.915,-17.399,0.002,0.972,-0.082,4.547,1.709,1.617,100.000,103201.000,1.000
-11.555,-9.841,-1.998,-0.487,-8.830,7.990,5.044,-14.769,0.000,0.972,-0.083,4.333,1.923,1.678,100.000,103202.000,1.000
-10.199,-8.681,-1.491,-1.224,-8.685,5.236,2.858,-16.515,0.001,0.971,-0.081,4.089,2.075,1.709,100.000,103203.000,1.000
-8.048,-8.074,1.816,0.220,-7.774,3.075,1.901,-17.950,0.001,0.967,-0.084,4.028,2.319,1.801,100.000,103204.000,1.000
-3.743,-1.957,12.834,7.541,-1.853,9.622,9.343,-13.723,-0.002,0.970,-0.083,3.876,2.441,1.709,100.000,103205.000,1.000
1.774,8.426,26.850,17.086,5.914,23.402,23.271,-6.323,-0.006,0.970,-0.087,3.815,2.563,1.770,100.000,103206.000,1.000
9.264,18.072,39.792,24.990,11.388,36.745,36.231,-0.273,-0.012,0.974,-0.085,3.601,2.502,1.801,100.000,103207.000,1.000
12.727,19.510,44.103,25.492,10.831,39.642,39.299,0.304,-0.012,0.972,-0.085,3.326,2.533,1.831,100.000,103208.000,1.000
11.612,17.541,44.802,22.820,7.667,37.602,36.797,-1.432,-0.015,0.972,-0.085,3.113,2.533,1.831,100.000,103209.000,1.000
10.875,21.165,49.508,23.554,7.284,42.083,38.807,-0.587,-0.016,0.971,-0.085,2.960,2.411,1.831,100.000,103210.000,1.000
11.928,28.070,55.794,25.776,9.288,51.103,45.706,2.029,-0.018,0.969,-0.084,2.808,2.350,1.770,100.000,103211.000,1.000
13.500,29.908,58.389,25.335,9.622,53.744,49.907,3.260,-0.024,0.966,-0.083,2.686,2.045,1.648,100.000,103212.000,1.000
10.765,21.543,51.878,19.164,4.288,43.552,45.681,0.490,-0.028,0.968,-0.085,2.563,1.923,1.434,100.000,103213.000,1.000
9.060,14.947,47.844,15.901,-0.297,34.738,42.863,-0.382,-0.029,0.965,-0.082,2.380,1.556,1.251,100.000,103214.000,1.000
13.443,20.627,54.511,20.855,1.507,39.376,49.222,3.977,-0.029,0.963,-0.085,2.319,1.251,1.099,100.000,103215.000,1.000
18.433,31.077,63.697,26.830,5.164,49.170,57.620,7.061,-0.028,0.963,-0.087,2.289,1.007,0.916,100.000,103216.000,1.000
19.206,34.178,66.979,27.208,5.569,51.093,59.413,4.409,-0.027,0.963,-0.091,2.228,0.641,0.793,100.000,103217.000,1.000
11.579,22.586,57.008,17.858,0.281,38.529,50.379,-4.207,-0.029,0.962,-0.090,2.228,0.275,0.702,100.000,103218.000,1.000
1.767,7.308,43.233,7.150,-4.743,24.274,38.449,-11.389,-0.028,0.961,-0.089,2.228,-0.031,0.549,100.000,103219.000,1.000
-0.599,3.835,38.984,5.587,-3.125,23.706,34.369,-10.404,-0.025,0.960,-0.090,2.136,-0.214,0.549,100.000,103220.000,1.000
4.225,9.970,43.279,10.633,1.983,32.274,37.673,-5.140,-0.024,0.961,-0.089,2.167,-0.488,0.488,100.000,103221.000,1.000
8.543,11.820,44.351,11.597,2.514,33.383,38.760,-3.879,-0.021,0.963,-0.086,2.258,-0.610,0.427,100.000,103222.000,1.000
2.910,-0.219,29.043,0.355,-6.261,17.499,29.319,-10.652,-0.018,0.962,-0.086,2.106,-0.793,0.519,100.000,103223.000,1.000
-5.260,-14.140,10.889,-11.807,-15.719,0.310,17.637,-17.207,-0.017,0.964,-0.088,2.045,-1.007,0.610,100.000,103224.000,1.000
-5.520,-16.668,6.956,-13.559,-18.275,-2.163,13.665,-17.063,-0.014,0.965,-0.087,1.923,-1.160,0.763,100.000,103225.000,1.000
-2.474,-13.974,10.306,-10.760,-18.194,3.697,14.273,-15.078,-0.011,0.967,-0.089,1.831,-1.251,0.946,100.000,103226.000,1.000
-4.968,-18.806,4.886,-13.938,-22.228,2.844,10.912,-17.711,-0.010,0.969,-0.090,1.740,-1.251,1.129,100.000,103227.000,1.000
-16.865,-36.284,-17.348,-28.243,-33.385,-12.855,-2.282,-27.931,-0.008,0.970,-0.088,1.495,-1.129,1.373,100.000,103228.000,1.000
-24.963,-51.455,-37.011,-40.624,-42.117,-29.844,-16.113,-37.128,-0.008,0.972,-0.090,1.251,-1.190,1.526,100.000,103229.000,1.000
-19.669,-51.876,-38.338,-40.093,-40.062,-34.234,-20.896,-37.057,-0.005,0.974,-0.087,1.007,-1.099,1.831,100.000,103230.000,1.000
-12.286,-46.659,-32.905,-35.065,-33.382,-31.600,-21.370,-32.618,-0.004,0.976,-0.088,0.793,-0.977,2.167,100.000,103231.000,1.000
-13.881,-46.778,-36.639,-36.046,-30.587,-32.634,-24.780,-29.996,-0.001,0.978,-0.089,0.458,-0.854,2.319,100.000,103232.000,1.000
-23.775,-53.788,-54.702,-44.610,-33.991,-42.233,-32.913,-29.901,0.000,0.980,-0.089,0.122,-0.610,2.533,100.000,103233.000,1.000
-29.049,-59.297,-70.770,-49.972,-36.954,-51.707,-40.045,-28.751,0.002,0.980,-0.092,-0.092,-0.427,2.686,100.000,103234.000,1.000
-25.125,-60.155,-74.725,-48.514,-36.144,-55.685,-45.479,-28.400,0.005,0.981,-0.092,-0.519,-0.275,2.930,100.000,103235.000,1.000
-22.136,-61.486,-75.640,-48.056,-35.909,-60.237,-52.714,-31.816,0.004,0.980,-0.090,-0.885,0.000,3.052,100.000,103236.000,1.000
-26.896,-65.389,-81.697,-51.541,-38.225,-68.632,-58.901,-33.663,0.006,0.980,-0.090,-1.221,0.305,3.021,100.000,103237.000,1.000
-37.994,-72.576,-95.452,-58.067,-42.260,-80.616,-63.015,-31.844,0.007,0.980,-0.090,-1.465,0.488,3.021,100.000,103238.000,1.000
-41.524,-75.534,-103.827,-59.717,-42.467,-87.951,-64.746,-27.884,0.006,0.978,-0.091,-1.587,0.854,2.991,100.000,103239.000,1.000
-32.256,-70.638,-101.175,-54.816,-38.300,-87.070,-66.457,-24.958,0.007,0.976,-0.091,-1.953,0.977,3.021,100.000,103240.000,1.000
-23.365,-66.034,-98.191,-51.275,-36.171,-84.666,-70.519,-25.248,0.006,0.976,-0.095,-2.289,1.160,3.082,100.000,103241.000,1.000
-23.861,-65.335,-99.823,-51.632,-37.449,-84.385,-73.020,-25.229,0.008,0.976,-0.092,-2.411,1.465,2.899,100.000,103242.000,1.000
-32.617,-67.251,-106.756,-56.078,-40.757,-88.476,-73.557,-24.685,0.010,0.973,-0.093,-2.563,1.648,2.716,100.000,103243.000,1.000
-37.257,-66.761,-110.212,-58.952,-42.507,-92.652,-72.972,-25.195,0.007,0.974,-0.090,-2.655,1.923,2.686,100.000,103244.000,1.000
-30.099,-62.066,-105.075,-55.520,-40.602,-91.374,-71.439,-26.300,0.004,0.973,-0.094,-2.777,2.136,2.502,100.000,103245.000,1.000
-15.539,-52.537,-92.056,-44.547,-33.333,-81.407,-64.993,-22.164,0.005,0.972,-0.097,-2.808,2.319,2.319,100.000,103246.000,1.000
-1.392,-37.188,-71.857,-27.468,-20.113,-63.328,-49.119,-8.122,0.007,0.970,-0.091,-3.021,2.533,2.289,100.000,103247.000,1.000
0.953,-27.308,-58.631,-17.334,-10.921,-51.454,-34.262,3.745,0.005,0.969,-0.094,-3.052,2.808,2.045,100.000,103248.000,1.000
-4.013,-27.464,-55.719,-17.294,-10.533,-51.450,-29.779,3.510,0.006,0.967,-0.093,-3.113,2.899,1.953,100.000,103249.000,1.000
-3.378,-29.455,-54.370,-18.756,-13.024,-54.673,-32.531,-2.789,0.006,0.966,-0.090,-3.082,3.113,1.617,100.000,103250.000,1.000
1.987,-26.848,-49.671,-17.919,-13.377,-53.256,-34.104,-5.594,0.004,0.967,-0.090,-3.082,3.204,1.587,100.000,103251.000,1.000
4.862,-18.466,-39.506,-15.442,-10.476,-44.348,-28.479,-2.118,0.003,0.965,-0.090,-2.960,3.326,1.404,100.000,103252.000,1.000
2.313,-11.380,-29.762,-15.189,-7.386,-34.395,-20.057,1.612,0.001,0.964,-0.091,-3.052,3.510,1.190,100.000,103253.000,1.000
5.403,-6.906,-19.609,-12.762,-2.977,-25.779,-12.761,4.292,-0.002,0.962,-0.084,-3.052,3.510,1.007,100.000,103254.000,1.000
18.802,-1.712,-9.272,-5.100,3.008,-17.758,-8.197,7.375,-0.003,0.963,-0.085,-3.021,3.601,0.977,100.000,103255.000,1.000
28.778,3.207,-3.431,1.916,6.311,-11.859,-6.819,8.677,-0.005,0.962,-0.090,-2.960,3.571,0.732,100.000,103256.000,1.000
25.598,6.486,-0.383,4.253,6.268,-7.700,-4.803,8.841,-0.005,0.962,-0.092,-3.082,3.540,0.610,100.000,103257.000,1.000
13.371,5.761,-1.789,0.528,4.031,-7.721,-2.213,8.382,-0.007,0.962,-0.085,-3.052,3.510,0.305,100.000,103258.000,1.000
9.231,5.310,-2.379,-1.801,3.655,-8.795,0.262,8.120,-0.009,0.961,-0.085,-3.021,3.418,0.061,100.000,103259.000,1.000
18.296,7.178,1.153,0.826,5.158,-7.868,0.169,6.494,-0.011,0.959,-0.088,-2.991,3.326,-0.153,100.000,103260.000,1.000
26.252,7.569,4.702,3.403,4.974,-6.205,-3.056,2.694,-0.010,0.958,-0.083,-3.052,3.235,-0.397,100.000,103261.000,1.000
24.230,8.189,7.799,4.995,4.982,-2.274,-2.496,2.354,-0.012,0.959,-0.083,-2.930,3.143,-0.549,100.000,103262.000,1.000
15.223,8.957,6.637,4.288,5.948,1.064,2.410,5.456,-0.011,0.960,-0.083,-2.960,2.869,-0.671,100.000,103263.000,1.000
12.848,9.277,4.687,3.877,7.701,1.986,5.883,6.928,-0.012,0.961,-0.082,-2.991,2.777,-0.763,100.000,103264.000,1.000
20.641,7.191,4.096,4.550,8.208,-1.350,1.929,3.702,-0.013,0.962,-0.084,-2.991,2.716,-0.977,100.000,103265.000,1.000
26.446,2.714,2.909,4.552,6.358,-7.953,-6.540,-0.328,-0.014,0.961,-0.083,-3.052,2.533,-1.160,100.000,103266.000,1.000
25.020,3.674,4.986,7.459,6.814,-8.416,-7.475,2.784,-0.014,0.962,-0.085,-3.021,2.380,-1.282,100.000,103267.000,1.000
19.813,10.272,6.852,11.396,10.131,-2.445,0.048,10.178,-0.014,0.964,-0.084,-3.082,2.136,-1.190,100.000,103268.000,1.000
19.722,15.498,7.486,13.448,13.505,1.923,6.589,14.394,-0.016,0.966,-0.085,-3.082,2.014,-1.343,100.000,103269.000,1.000
26.298,13.904,8.088,13.095,14.713,-2.025,4.574,13.451,-0.017,0.968,-0.085,-3.204,1.862,-1.434,100.000,103270.000,1.000
32.501,10.914,10.982,14.021,16.101,-8.649,-0.286,12.847,-0.017,0.970,-0.084,-3.235,1.770,-1.556,100.000,103271.000,1.000
33.954,16.594,18.944,19.879,21.204,-4.511,4.438,18.195,-0.019,0.970,-0.087,-3.418,1.526,-1.678,100.000,103272.000,1.000
27.879,24.041,22.279,22.378,24.371,6.511,14.496,22.450,-0.023,0.972,-0.082,-3.571,1.221,-1.678,100.000,103273.000,1.000
22.966,23.930,20.448,18.945,22.430,11.712,17.464,18.885,-0.026,0.970,-0.084,-3.662,1.007,-1.587,100.000,103274.000,1.000
25.589,15.887,17.929,13.539,17.671,3.862,8.824,9.919,-0.026,0.972,-0.087,-3.937,0.793,-1.617,100.000,103275.000,1.000
28.261,6.788,14.999,8.972,13.686,-9.145,-1.827,3.550,-0.029,0.971,-0.085,-3.937,0.397,-1.801,100.000,103276.000,1.000
25.651,6.936,15.835,9.057,14.639,-9.086,-0.705,6.612,-0.028,0.970,-0.083,-4.150,0.092,-1.831,100.000,103277.000,1.000
17.861,12.806,17.343,9.900,16.950,2.786,8.442,12.717,-0.028,0.969,-0.083,-4.181,-0.092,-1.831,100.000,103278.000,1.000
13.371,14.753,18.025,8.484,16.346,10.351,13.374,13.160,-0.028,0.969,-0.082,-4.211,-0.458,-1.831,100.000,103279.000,1.000
14.809,7.374,15.485,3.232,11.207,2.183,6.573,6.613,-0.030,0.968,-0.083,-4.364,-0.671,-1.740,100.000,103280.000,1.000
14.635,-3.509,10.533,-3.468,4.344,-12.562,-5.574,-0.548,-0.030,0.968,-0.082,-4.364,-1.007,-1.801,100.000,103281.000,1.000
11.547,-2.823,12.823,-1.991,3.970,-11.518,-6.124,1.258,-0.031,0.968,-0.080,-4.395,-1.282,-1.617,100.000,103282.000,1.000
6.817,7.310,17.280,4.641,8.508,2.933,4.462,8.402,-0.030,0.969,-0.081,-4.364,-1.556,-1.556,100.000,103283.000,1.000
4.809,11.372,15.622,6.251,9.362,8.571,9.750,10.107,-0.027,0.970,-0.081,-4.456,-1.709,-1.465,100.000,103284.000,1.000
6.117,0.942,6.363,-1.614,2.407,-6.448,-0.094,2.965,-0.028,0.967,-0.081,-4.333,-1.923,-1.495,100.000,103285.000,1.000
7.784,-11.898,-2.085,-10.225,-4.965,-25.270,-13.388,-4.208,-0.027,0.967,-0.084,-4.364,-2.045,-1.251,100.000,103286.000,1.000
10.826,-7.473,1.757,-6.581,-2.073,-21.272,-11.736,-0.857,-0.028,0.967,-0.082,-4.395,-2.289,-1.038,100.000,103287.000,1.000
10.719,6.693,7.470,1.863,5.244,-1.554,-0.872,6.776,-0.025,0.967,-0.078,-4.333,-2.411,-0.732,100.000,103288.000,1.000
8.749,11.036,6.191,3.968,7.276,7.613,2.984,9.114,-0.024,0.966,-0.076,-4.395,-2.533,-0.671,100.000,103289.000,1.000
10.594,1.923,1.558,-0.133,4.365,-3.342,-4.031,6.777,-0.024,0.967,-0.077,-4.303,-2.625,-0.519,100.000,103290.000,1.000
15.043,-7.058,-0.177,-3.120,2.464,-17.010,-11.367,6.189,-0.021,0.967,-0.076,-4.303,-2.686,-0.275,100.000,103291.000,1.000
18.953,-1.499,5.006,1.762,5.092,-10.874,-7.990,11.477,-0.020,0.967,-0.073,-4.211,-2.716,0.000,100.000,103292.000,1.000
17.954,11.280,8.223,7.872,6.992,7.462,0.171,16.253,-0.019,0.967,-0.076,-4.303,-2.777,0.122,100.000,103293.000,1.000
16.066,15.714,6.321,9.235,5.094,15.179,2.856,15.370,-0.018,0.967,-0.073,-4.272,-2.655,0.397,100.000,103294.000,1.000
16.579,6.101,0.231,5.306,0.254,2.277,-3.925,10.122,-0.017,0.967,-0.073,-4.303,-2.655,0.458,100.000,103295.000,1.000
16.489,-6.084,-7.254,0.651,-3.934,-15.977,-13.178,5.905,-0.015,0.967,-0.072,-4.272,-2.625,0.641,100.000,103296.000,1.000
17.246,-2.522,-6.650,4.615,-1.532,-14.481,-10.967,9.626,-0.014,0.967,-0.074,-4.303,-2.502,0.793,100.000,103297.000,1.000
17.809,11.659,-1.505,13.488,4.375,2.665,0.471,17.765,-0.013,0.965,-0.074,-4.272,-2.258,0.854,100.000,103298.000,1.000
18.609,17.824,1.486,18.519,8.036,12.242,7.028,22.487,-0.010,0.967,-0.073,-4.425,-2.197,0.916,100.000,103299.000,1.000
18.478,8.039,-3.346,14.623,5.876,1.912,-0.497,19.264,-0.008,0.966,-0.068,-4.395,-2.014,1.007,100.000,103300.000,1.000
15.271,-4.836,-13.868,5.663,-0.473,-15.033,-14.126,11.486,-0.005,0.967,-0.073,-4.272,-1.740,1.129,100.000,103301.000,1.000
13.700,-1.530,-15.679,3.582,-2.351,-14.355,-15.919,9.471,-0.005,0.966,-0.072,-4.303,-1.373,1.251,100.000,103302.000,1.000
12.575,11.518,-10.368,6.842,0.737,0.334,-6.461,13.188,-0.002,0.967,-0.073,-4.333,-1.129,1.282,100.000,103303.000,1.000
11.400,17.479,-6.727,8.622,3.832,8.360,1.301,16.740,0.001,0.966,-0.075,-4.211,-0.732,1.373,100.000,103304.000,1.000
11.403,11.438,-10.137,6.081,4.151,0.356,-0.411,17.263,0.000,0.964,-0.075,-4.272,-0.488,1.251,100.000,103305.000,1.000
10.411,0.579,-18.745,0.681,2.516,-13.548,-8.397,15.332,0.002,0.965,-0.076,-4.395,-0.031,1.312,100.000,103306.000,1.000
9.608,-1.702,-21.557,-0.686,3.339,-15.632,-12.044,15.510,0.002,0.966,-0.071,-4.272,0.244,1.312,100.000,103307.000,1.000
8.794,6.229,-18.352,2.149,6.633,-6.777,-8.990,18.035,0.003,0.967,-0.071,-4.242,0.549,1.282,100.000,103308.000,1.000
9.478,15.457,-13.112,6.114,10.267,0.565,-4.017,20.004,0.005,0.965,-0.070,-4.272,0.916,1.251,100.000,103309.000,1.000
8.906,14.168,-13.843,5.017,9.916,-3.568,-4.751,17.020,0.004,0.967,-0.072,-4.211,1.312,1.251,100.000,103310.000,1.000
3.622,2.570,-22.462,-1.947,5.257,-14.924,-11.075,10.407,0.002,0.967,-0.070,-4.211,1.770,1.190,100.000,103311.000,1.000
0.576,-2.986,-24.493,-3.644,4.487,-16.914,-11.745,10.093,0.000,0.969,-0.069,-4.242,2.106,1.068,100.000,103312.000,1.000
0.525,0.637,-18.128,-0.066,7.983,-9.771,-5.568,15.585,-0.002,0.967,-0.071,-4.211,2.533,0.946,100.000,103313.000,1.000
-0.224,3.345,-12.515,0.841,9.636,-5.865,-0.808,18.561,-0.002,0.968,-0.069,-4.211,2.747,0.763,100.000,103314.000,1.000
-4.426,-2.207,-17.302,-5.457,5.016,-12.586,-5.041,14.144,-0.004,0.966,-0.069,-4.333,2.991,0.641,100.000,103315.000,1.000
-11.839,-12.748,-30.146,-15.664,-4.384,-25.242,-16.600,3.859,-0.004,0.966,-0.070,-4.211,3.235,0.519,100.000,103316.000,1.000
-14.470,-15.995,-33.624,-19.023,-9.777,-30.584,-22.595,-2.798,-0.006,0.967,-0.069,-4.181,3.448,0.427,100.000,103317.000,1.000
-10.578,-10.256,-25.178,-14.046,-7.483,-26.996,-17.476,-0.510,-0.007,0.966,-0.069,-4.120,3.662,0.305,100.000,103318.000,1.000
-5.307,-3.981,-15.277,-7.088,-1.988,-21.709,-8.684,5.576,-0.009,0.965,-0.068,-4.028,3.784,0.244,100.000,103319.000,1.000
-5.662,-5.123,-16.045,-6.338,-0.880,-22.121,-7.954,5.819,-0.010,0.967,-0.069,-3.998,3.967,0.214,100.000,103320.000,1.000
-9.687,-9.247,-24.086,-10.020,-2.776,-25.964,-13.237,2.071,-0.011,0.965,-0.068,-3.906,4.242,0.092,100.000,103321.000,1.000
-8.436,-6.771,-23.666,-8.649,-0.444,-25.640,-13.048,4.356,-0.012,0.964,-0.065,-3.845,4.303,-0.061,100.000,103322.000,1.000
-7.207,-4.369,-19.150,-6.335,2.324,-26.386,-10.553,8.637,-0.015,0.964,-0.067,-3.784,4.364,-0.122,100.000,103323.000,1.000
-8.761,-5.302,-16.359,-5.654,3.149,-28.056,-10.331,8.585,-0.015,0.966,-0.064,-3.601,4.456,-0.244,100.000,103324.000,1.000
-6.489,-3.405,-14.275,-3.568,4.860,-24.915,-10.184,6.626,-0.016,0.966,-0.065,-3.510,4.425,-0.244,100.000,103325.000,1.000
2.487,2.632,-11.953,0.201,8.311,-19.839,-8.260,7.518,-0.018,0.963,-0.063,-3.387,4.272,-0.183,100.000,103326.000,1.000
16.126,9.691,-6.216,6.111,13.667,-17.516,-4.303,12.986,-0.020,0.965,-0.065,-3.265,4.272,-0.214,100.000,103327.000,1.000
25.916,10.751,-2.891,9.232,15.984,-22.031,-4.177,15.709,-0.020,0.963,-0.063,-3.052,4.272,-0.122,100.000,103328.000,1.000
32.109,9.221,-1.917,9.958,14.879,-26.824,-7.595,13.639,-0.020,0.963,-0.063,-2.930,4.211,-0.122,100.000,103329.000,1.000
39.059,12.210,-0.573,11.449,15.607,-24.258,-8.360,13.218,-0.024,0.962,-0.065,-2.716,4.181,0.000,100.000,103330.000,1.000
45.060,17.794,1.721,13.793,19.983,-17.050,-4.598,17.160,-0.023,0.963,-0.064,-2.472,3.967,0.092,100.000,103331.000,1.000
50.294,22.575,9.243,18.625,25.983,-10.766,1.130,23.087,-0.023,0.965,-0.063,-2.197,3.876,0.153,100.000,103332.000,1.000
52.377,22.024,15.429,21.368,28.088,-11.157,2.442,25.234,-0.025,0.966,-0.060,-2.106,3.754,0.122,100.000,103333.000,1.000
51.132,19.361,16.762,19.980,26.530,-12.305,0.861,23.766,-0.026,0.964,-0.063,-2.045,3.632,0.244,100.000,103334.000,1.000
46.406,20.188,14.412,15.765,24.313,-7.746,1.082,21.933,-0.024,0.968,-0.065,-1.831,3.448,0.336,100.000,103335.000,1.000
39.278,23.367,10.819,11.268,22.549,-2.410,3.004,20.997,-0.026,0.968,-0.064,-1.556,3.296,0.427,100.000,103336.000,1.000
37.467,25.608,11.537,11.108,22.394,-2.095,4.678,22.170,-0.024,0.965,-0.063,-1.404,3.113,0.519,100.000,103337.000,1.000
39.278,21.651,10.171,10.642,20.078,-10.298,0.947,21.246,-0.025,0.967,-0.063,-1.190,2.899,0.641,100.000,103338.000,1.000
39.299,16.395,5.102,8.100,15.471,-18.391,-5.833,16.846,-0.024,0.967,-0.065,-1.068,2.777,0.732,100.000,103339.000,1.000
34.986,15.960,-0.667,6.190,11.926,-17.883,-9.993,12.783,-0.024,0.964,-0.061,-0.946,2.563,0.793,100.000,103340.000,1.000
28.692,16.584,-6.323,5.423,10.184,-13.934,-11.160,12.223,-0.023,0.965,-0.064,-0.824,2.472,0.854,100.000,103341.000,1.000
28.229,14.425,-8.651,6.005,9.640,-14.872,-11.424,15.315,-0.023,0.968,-0.064,-0.702,2.319,0.977,100.000,103342.000,1.000
30.245,7.061,-12.477,3.686,6.844,-24.662,-15.405,16.008,-0.025,0.968,-0.068,-0.610,2.197,0.977,100.000,103343.000,1.000
30.506,3.079,-14.629,2.725,5.235,-30.472,-18.325,15.405,-0.024,0.967,-0.065,-0.458,2.106,1.099,100.000,103344.000,1.000
29.187,9.310,-11.389,7.585,8.947,-22.118,-13.748,18.994,-0.022,0.966,-0.065,-0.366,1.923,1.099,100.000,103345.000,1.000
25.127,14.974,-10.193,10.764,12.171,-12.419,-7.608,22.784,-0.020,0.969,-0.066,-0.397,1.740,1.160,100.000,103346.000,1.000
20.733,9.989,-14.574,6.774,9.371,-16.335,-8.986,20.447,-0.021,0.970,-0.063,-0.305,1.740,1.251,100.000,103347.000,1.000
16.864,-1.632,-23.022,-1.814,2.616,-30.971,-18.862,12.748,-0.022,0.968,-0.063,-0.244,1.587,1.343,100.000,103348.000,1.000
16.126,-3.960,-24.068,-3.971,1.168,-34.616,-23.939,9.974,-0.023,0.968,-0.066,-0.153,1.465,1.282,100.000,103349.000,1.000
16.375,5.640,-17.400,0.730,6.099,-20.870,-17.070,15.523,-0.022,0.965,-0.066,-0.122,1.282,1.221,100.000,103350.000,1.000
12.750,12.550,-15.308,2.269,9.329,-8.611,-8.122,20.542,-0.021,0.965,-0.063,0.031,1.190,1.221,100.000,103351.000,1.000
9.541,8.795,-18.508,-0.336,7.642,-11.195,-7.334,19.168,-0.018,0.966,-0.060,0.061,1.068,1.282,100.000,103352.000,1.000
7.898,-2.413,-24.660,-4.953,1.684,-25.643,-16.320,12.528,-0.017,0.967,-0.064,0.122,1.068,1.190,100.000,103353.000,1.000
8.555,-5.547,-25.045,-4.491,-1.443,-32.492,-22.695,10.349,-0.012,0.967,-0.065,0.244,1.221,1.099,100.000,103354.000,1.000
10.675,5.719,-17.470,3.222,1.886,-21.620,-17.961,16.960,-0.012,0.967,-0.063,0.427,1.343,1.251,100.000,103355.000,1.000
10.597,15.952,-12.440,9.419,5.477,-8.272,-10.633,23.533,-0.011,0.965,-0.066,0.427,1.312,1.282,100.000,103356.000,1.000
11.222,13.270,-14.082,9.734,6.384,-8.538,-11.287,24.350,-0.009,0.964,-0.065,0.458,1.434,1.312,100.000,103357.000,1.000
13.363,2.626,-20.262,6.078,6.603,-20.799,-20.933,22.028,-0.010,0.963,-0.064,0.427,1.587,1.404,100.000,103358.000,1.000
17.633,2.492,-17.903,8.659,11.788,-23.206,-24.994,25.672,-0.010,0.960,-0.067,0.580,1.678,1.282,100.000,103359.000,1.000
20.619,17.043,-5.740,18.983,20.995,-7.046,-14.683,36.997,-0.011,0.962,-0.068,0.641,1.648,1.251,100.000,103360.000,1.000
17.094,28.292,0.537,24.424,25.463,7.419,-2.764,44.450,-0.009,0.966,-0.067,0.793,1.740,1.251,100.000,103361.000,1.000
11.855,24.940,-3.615,18.937,22.098,2.852,-4.446,39.841,-0.010,0.969,-0.068,0.854,1.831,1.129,100.000,103362.000,1.000
7.734,11.936,-13.308,6.630,13.731,-15.815,-18.658,27.364,-0.009,0.968,-0.066,0.824,1.831,0.977,100.000,103363.000,1.000
5.636,6.205,-15.480,1.405,8.824,-24.515,-25.264,21.784,-0.009,0.966,-0.065,0.854,1.892,1.007,100.000,103364.000,1.000
2.659,12.850,-9.550,6.377,10.192,-14.878,-15.974,27.106,-0.012,0.966,-0.070,0.946,1.892,1.007,100.000,103365.000,1.000
-4.405,17.841,-8.645,8.728,10.936,-5.722,-7.118,29.929,-0.014,0.965,-0.069,0.977,1.892,0.824,100.000,103366.000,1.000
-8.996,11.960,-14.360,3.465,7.564,-10.987,-11.915,22.182,-0.015,0.967,-0.068,1.007,1.923,0.580,100.000,103367.000,1.000
-9.542,-1.929,-23.701,-5.214,1.328,-26.746,-26.330,9.647,-0.018,0.970,-0.068,1.068,1.862,0.427,100.000,103368.000,1.000
-7.957,-9.501,-28.429,-7.363,-1.836,-35.012,-33.268,5.489,-0.019,0.971,-0.068,0.977,1.923,0.153,100.000,103369.000,1.000
-8.019,-6.153,-28.388,-2.942,-1.036,-29.998,-27.881,10.245,-0.019,0.973,-0.072,0.793,1.648,-0.061,100.000,103370.000,1.000
-12.471,-4.621,-31.547,-1.784,-1.790,-25.857,-23.745,11.049,-0.021,0.974,-0.072,0.763,1.556,-0.153,100.000,103371.000,1.000
-14.759,-11.025,-35.808,-4.242,-4.479,-31.991,-29.071,4.378,-0.021,0.974,-0.070,0.671,1.404,-0.397,100.000,103372.000,1.000
-13.580,-19.957,-39.420,-6.959,-7.054,-45.051,-39.267,-3.151,-0.019,0.974,-0.070,0.519,1.343,-0.488,100.000,103373.000,1.000
-10.926,-18.091,-35.543,-4.541,-4.765,-48.151,-40.435,-2.788,-0.019,0.974,-0.069,0.397,1.343,-0.549,100.000,103374.000,1.000
-10.739,-4.220,-24.872,1.039,1.481,-35.946,-30.255,3.568,-0.019,0.974,-0.069,0.275,1.373,-0.458,100.000,103375.000,1.000
-16.487,5.076,-20.287,0.449,3.735,-25.847,-23.072,5.067,-0.016,0.972,-0.071,0.305,1.373,-0.397,100.000,103376.000,1.000
-21.358,1.683,-24.035,-5.993,1.690,-28.727,-26.290,0.519,-0.012,0.972,-0.070,0.153,1.312,-0.244,100.000,103377.000,1.000
-21.940,-7.609,-31.376,-13.335,-0.147,-38.011,-34.481,-4.316,-0.012,0.974,-0.070,0.153,1.251,-0.092,100.000,103378.000,1.000
-19.217,-8.581,-30.362,-14.067,2.507,-36.906,-35.143,-3.250,-0.014,0.973,-0.070,0.061,1.251,0.153,100.000,103379.000,1.000
-17.630,-0.846,-20.185,-9.108,6.959,-23.855,-26.302,2.269,-0.015,0.974,-0.073,-0.061,1.404,0.427,100.000,103380.000,1.000
-20.158,2.818,-13.482,-7.217,6.801,-13.902,-18.596,4.176,-0.015,0.972,-0.075,-0.122,1.373,0.519,100.000,103381.000,1.000
-20.618,0.386,-13.070,-7.784,3.306,-12.170,-17.304,2.050,-0.016,0.971,-0.076,-0.244,1.434,0.763,100.000,103382.000,1.000
-18.883,-4.644,-17.991,-8.200,-0.601,-15.611,-21.047,0.527,-0.017,0.969,-0.073,-0.275,1.434,0.824,100.000,103383.000,1.000
-16.327,-6.352,-18.691,-4.718,-0.825,-15.658,-21.382,4.573,-0.018,0.971,-0.073,-0.397,1.282,0.854,100.000,103384.000,1.000
-13.898,-3.466,-11.121,1.397,2.620,-8.907,-14.620,11.429,-0.017,0.968,-0.074,-0.458,1.221,0.977,100.000,103385.000,1.000
-15.121,-3.998,-6.531,2.604,2.248,-3.790,-9.239,11.283,-0.018,0.966,-0.073,-0.610,1.251,1.007,100.000,103386.000,1.000
-18.215,-10.944,-11.129,-1.542,-4.533,-6.197,-11.483,3.082,-0.020,0.967,-0.071,-0.671,1.190,0.977,100.000,103387.000,1.000
-22.070,-20.146,-22.643,-7.435,-12.646,-14.325,-18.770,-5.380,-0.020,0.966,-0.072,-0.702,1.099,0.977,100.000,103388.000,1.000
-22.546,-20.654,-26.371,-6.738,-13.386,-15.573,-20.196,-4.726,-0.019,0.964,-0.071,-0.671,1.160,0.977,100.000,103389.000,1.000
-18.836,-10.474,-18.961,1.316,-7.726,-5.798,-13.111,3.655,-0.018,0.963,-0.072,-0.671,1.099,1.038,100.000,103390.000,1.000
-16.525,-1.368,-14.680,7.221,-4.634,3.010,-6.658,9.656,-0.020,0.960,-0.073,-0.702,1.007,0.977,100.000,103391.000,1.000
-16.404,-0.552,-18.950,7.325,-6.574,2.935,-6.566,9.325,-0.018,0.962,-0.072,-0.641,0.977,0.793,100.000,103392.000,1.000
-20.063,-8.149,-29.631,1.930,-12.450,-6.352,-13.143,3.333,-0.017,0.960,-0.072,-0.732,1.007,0.793,100.000,103393.000,1.000
-23.724,-13.516,-35.361,-1.739,-16.629,-14.189,-17.651,-1.906,-0.014,0.958,-0.074,-0.702,1.038,0.824,100.000,103394.000,1.000
-23.978,-10.043,-34.007,-0.619,-16.243,-13.804,-15.457,-2.178,-0.013,0.959,-0.075,-0.702,1.038,0.732,100.000,103395.000,1.000
-24.118,-5.734,-34.739,0.218,-15.585,-11.489,-13.415,-1.454,-0.012,0.960,-0.073,-0.580,1.129,0.610,100.000,103396.000,1.000
-22.534,-5.565,-35.016,1.522,-15.038,-10.276,-13.836,-0.764,-0.014,0.962,-0.072,-0.397,1.099,0.610,100.000,103397.000,1.000
-18.980,-8.376,-32.628,3.180,-13.093,-10.034,-13.713,1.079,-0.013,0.962,-0.073,-0.458,1.099,0.549,100.000,103398.000,1.000
-13.097,-7.309,-25.571,6.761,-7.737,-6.489,-8.525,5.766,-0.012,0.963,-0.071,-0.458,1.160,0.549,100.000,103399.000,1.000
-7.547,-1.569,-17.037,11.424,-1.567,-0.528,-1.846,9.780,-0.014,0.967,-0.071,-0.580,1.160,0.610,100.000,103400.000,1.000
-7.353,1.106,-12.906,11.692,-0.084,0.723,-1.743,6.964,-0.015,0.967,-0.074,-0.610,1.160,0.549,100.000,103401.000,1.000
-9.159,0.154,-8.867,8.228,-0.994,-0.541,-5.531,1.593,-0.013,0.968,-0.072,-0.580,1.160,0.671,100.000,103402.000,1.000
-11.573,-2.189,-5.386,2.588,-1.011,-0.417,-7.924,-0.429,-0.011,0.968,-0.073,-0.610,1.099,0.763,100.000,103403.000,1.000
-12.546,-0.655,-0.164,0.668,1.751,4.229,-5.679,1.720,-0.011,0.969,-0.075,-0.793,1.221,0.793,100.000,103404.000,1.000
-11.278,6.458,8.172,4.853,6.290,11.855,-0.200,4.669,-0.009,0.970,-0.075,-0.946,1.251,0.763,100.000,103405.000,1.000
-11.612,13.075,14.729,8.880,9.915,17.563,4.493,5.371,-0.010,0.969,-0.075,-0.977,1.343,0.763,100.000,103406.000,1.000
-13.532,15.984,18.271,9.187,12.212,20.802,6.838,4.006,-0.011,0.971,-0.074,-0.977,1.373,0.885,100.000,103407.000,1.000
-18.309,12.903,14.762,3.877,10.203,18.383,3.494,-1.470,-0.012,0.970,-0.073,-1.007,1.556,1.007,100.000,103408.000,1.000
-21.541,8.443,11.152,-0.188,6.351,14.367,-1.556,-6.795,-0.012,0.969,-0.076,-1.099,1.587,1.068,100.000,103409.000,1.000
-19.521,5.934,13.769,1.570,4.828,13.857,-3.573,-6.744,-0.011,0.970,-0.076,-1.068,1.709,1.038,100.000,103410.000,1.000
-17.557,0.756,15.744,2.997,3.522,12.415,-5.649,-4.850,-0.011,0.971,-0.077,-1.129,1.709,1.129,100.000,103411.000,1.000
-17.383,-4.864,14.947,2.322,2.211,9.200,-7.614,-3.186,-0.011,0.971,-0.074,-1.160,1.740,1.160,100.000,103412.000,1.000
-19.315,-6.672,11.606,0.437,1.721,6.269,-7.539,-1.513,-0.012,0.968,-0.074,-1.190,1.740,1.068,100.000,103413.000,1.000
-20.843,-3.542,11.089,0.591,3.060,6.729,-4.549,1.265,-0.013,0.968,-0.075,-1.190,1.740,1.007,100.000,103414.000,1.000
-22.122,-0.816,12.353,1.802,4.216,7.381,-2.974,3.500,-0.013,0.968,-0.076,-1.129,1.831,1.068,100.000,103415.000,1.000
-25.433,-2.543,9.137,1.405,4.137,4.105,-5.346,4.086,-0.012,0.968,-0.075,-1.068,1.770,0.977,100.000,103416.000,1.000
-26.219,-2.235,5.194,3.439,6.935,2.376,-5.372,7.688,-0.012,0.966,-0.078,-1.007,1.862,0.916,100.000,103417.000,1.000
-25.020,1.043,1.009,6.157,10.831,3.132,-2.049,13.319,-0.011,0.967,-0.078,-1.007,1.923,0.885,100.000,103418.000,1.000
-21.989,5.325,1.530,9.262,14.376,7.367,2.984,17.553,-0.012,0.969,-0.076,-0.946,2.014,0.946,100.000,103419.000,1.000
-17.844,8.337,7.007,12.599,17.553,13.557,6.646,17.819,-0.012,0.970,-0.075,-0.916,1.953,0.885,100.000,103420.000,1.000
-17.600,6.664,7.074,11.584,17.570,13.634,5.103,13.026,-0.014,0.968,-0.077,-0.763,2.014,0.793,100.000,103421.000,1.000
-18.128,4.459,2.260,8.407,16.028,8.357,2.235,9.164,-0.013,0.966,-0.073,-0.702,2.106,0.793,100.000,103422.000,1.000
-15.450,4.752,-1.943,6.098,15.104,3.382,1.096,8.911,-0.012,0.965,-0.075,-0.732,1.984,0.732,100.000,103423.000,1.000
-7.805,8.760,2.080,8.039,16.861,5.122,2.978,10.465,-0.012,0.962,-0.077,-0.671,1.953,0.763,100.000,103424.000,1.000
-0.559,12.628,9.821,11.254,19.698,10.964,5.626,10.838,-0.011,0.960,-0.077,-0.519,2.136,0.763,100.000,103425.000,1.000
-0.877,11.142,10.045,9.449,20.042,12.387,5.704,9.577,-0.012,0.962,-0.078,-0.397,2.167,0.732,100.000,103426.000,1.000
-3.468,9.469,8.442,6.631,19.949,11.790,6.000,11.309,-0.010,0.963,-0.078,-0.244,2.106,0.793,100.000,103427.000,1.000
-4.326,9.599,10.146,5.002,19.365,12.095,5.919,13.574,-0.008,0.963,-0.079,-0.122,2.075,0.793,100.000,103428.000,1.000
-0.882,12.202,17.488,6.530,19.587,15.609,6.125,13.359,-0.007,0.964,-0.079,0.031,2.289,0.885,100.000,103429.000,1.000
6.765,18.775,27.427,11.311,22.742,21.983,8.906,12.741,-0.007,0.963,-0.076,0.031,2.411,0.977,100.000,103430.000,1.000
11.679,24.485,32.216,13.107,25.322,25.654,11.040,10.825,-0.010,0.961,-0.078,0.183,2.380,1.129,100.000,103431.000,1.000
10.686,24.417,31.997,9.560,24.172,25.189,8.959,5.922,-0.012,0.963,-0.078,0.214,2.441,1.099,100.000,103432.000,1.000
3.397,17.269,26.004,1.742,18.843,20.550,1.823,-1.654,-0.015,0.966,-0.079,0.244,2.441,1.068,100.000,103433.000,1.000
-3.329,11.198,19.754,-3.187,14.151,16.816,-4.030,-6.282,-0.016,0.965,-0.077,0.305,2.380,0.946,100.000,103434.000,1.000
-4.769,10.945,16.680,-3.032,12.773,16.346,-5.035,-5.314,-0.018,0.965,-0.078,0.275,2.319,0.732,100.000,103435.000,1.000
-3.841,12.145,14.848,-2.346,13.122,15.671,-3.452,-2.445,-0.016,0.963,-0.077,0.366,2.380,0.824,100.000,103436.000,1.000
-0.646,13.692,16.998,-0.196,15.701,15.059,0.195,0.568,-0.016,0.963,-0.079,0.458,2.228,0.641,100.000,103437.000,1.000
1.033,12.522,17.508,1.547,17.873,12.225,1.323,1.210,-0.014,0.964,-0.081,0.519,2.075,0.580,100.000,103438.000,1.000
1.696,10.097,16.845,3.051,19.005,9.739,-0.676,0.696,-0.015,0.965,-0.078,0.610,1.953,0.549,100.000,103439.000,1.000
3.824,9.782,18.569,4.168,19.495,10.371,-2.767,1.319,-0.013,0.964,-0.080,0.610,2.106,0.458,100.000,103440.000,1.000
4.094,8.637,18.245,1.535,17.626,9.674,-4.872,1.626,-0.012,0.964,-0.084,0.641,1.953,0.549,100.000,103441.000,1.000
3.074,6.508,15.495,-2.132,15.163,6.666,-6.197,1.940,-0.013,0.964,-0.083,0.671,1.831,0.610,100.000,103442.000,1.000
-0.025,3.504,8.976,-6.064,11.921,1.005,-8.956,0.240,-0.013,0.968,-0.081,0.732,1.953,0.580,100.000,103443.000,1.000
-4.649,1.686,2.563,-8.832,8.214,-3.637,-12.439,-3.281,-0.013,0.969,-0.078,0.671,1.953,0.549,100.000,103444.000,1.000
-10.245,0.707,-2.711,-10.534,4.588,-5.480,-15.028,-5.704,-0.010,0.967,-0.083,0.610,1.953,0.610,100.000,103445.000,1.000
-16.425,-1.686,-9.013,-12.331,0.854,-7.341,-17.480,-6.574,-0.010,0.970,-0.082,0.610,2.014,0.610,100.000,103446.000,1.000
-17.491,-1.403,-10.259,-10.413,-0.400,-7.197,-18.144,-5.634,-0.010,0.971,-0.085,0.458,2.014,0.641,100.000,103447.000,1.000
-15.143,1.020,-8.515,-7.880,-0.032,-5.650,-17.828,-4.384,-0.013,0.969,-0.082,0.366,1.953,0.671,100.000,103448.000,1.000
-11.880,4.312,-5.737,-6.790,1.846,-1.919,-15.159,-1.002,-0.013,0.970,-0.083,0.336,1.984,0.702,100.000,103449.000,1.000
-9.053,6.562,-4.379,-6.893,3.624,2.328,-11.152,3.693,-0.013,0.971,-0.080,0.214,1.984,0.732,100.000,103450.000,1.000
-8.641,4.936,-6.621,-8.193,2.029,2.887,-9.784,4.255,-0.013,0.971,-0.081,0.153,1.923,0.671,100.000,103451.000,1.000
-6.113,4.372,-3.641,-5.682,0.931,4.371,-8.154,2.453,-0.015,0.972,-0.080,-0.061,1.892,0.549,100.000,103452.000,1.000
-3.088,4.555,2.991,-2.208,1.740,7.021,-5.981,0.728,-0.015,0.971,-0.083,-0.183,1.801,0.519,100.000,103453.000,1.000
-2.617,2.234,7.104,-1.859,2.234,7.664,-5.206,-0.294,-0.014,0.971,-0.083,-0.275,1.709,0.641,100.000,103454.000,1.000
-3.872,-1.452,6.832,-4.115,1.380,5.650,-6.445,-0.320,-0.014,0.968,-0.083,-0.427,1.709,0.610,100.000,103455.000,1.000
-4.688,-1.770,6.308,-5.854,1.459,4.302,-7.566,1.039,-0.014,0.967,-0.085,-0.488,1.862,0.580,100.000,103456.000,1.000
-2.135,4.540,12.307,-2.935,5.316,8.037,-5.329,4.711,-0.014,0.967,-0.082,-0.458,1.770,0.549,100.000,103457.000,1.000
-1.880,8.384,16.053,-0.459,8.081,9.926,-4.468,6.598,-0.013,0.966,-0.081,-0.488,1.709,0.580,100.000,103458.000,1.000
-4.465,6.785,15.720,0.844,9.047,8.397,-4.999,7.437,-0.011,0.966,-0.082,-0.641,1.617,0.366,100.000,103459.000,1.000
-6.183,6.124,17.253,3.384,11.437,9.118,-2.689,10.877,-0.012,0.965,-0.081,-0.671,1.495,0.458,100.000,103460.000,1.000
-9.462,6.947,18.278,3.741,13.253,11.483,0.447,13.839,-0.013,0.963,-0.083,-0.671,1.617,0.427,100.000,103461.000,1.000
-13.894,6.662,16.365,1.660,13.134,13.044,1.632,13.445,-0.014,0.964,-0.084,-0.732,1.526,0.305,100.000,103462.000,1.000
-18.704,1.836,8.257,-2.481,10.548,9.828,-1.408,9.222,-0.013,0.965,-0.083,-0.763,1.556,0.336,100.000,103463.000,1.000
-19.498,-2.427,1.097,-4.265,8.215,5.030,-5.080,5.358,-0.013,0.962,-0.084,-0.793,1.495,0.275,100.000,103464.000,1.000
-14.810,-0.871,0.568,-2.184,7.851,3.461,-5.708,4.644,-0.013,0.962,-0.082,-0.763,1.434,0.244,100.000,103465.000,1.000
-8.981,3.100,3.084,0.895,8.518,5.142,-3.925,5.562,-0.012,0.964,-0.084,-0.854,1.495,0.244,100.000,103466.000,1.000
-2.117,6.422,7.226,5.779,10.054,9.669,-0.560,7.662,-0.014,0.963,-0.082,-0.824,1.495,0.305,100.000,103467.000,1.000
1.766,4.014,5.480,7.258,7.715,9.437,-1.203,7.007,-0.014,0.962,-0.082,-0.793,1.495,0.305,100.000,103468.000,1.000
2.245,-2.483,-0.332,4.586,1.963,2.853,-6.124,3.037,-0.014,0.964,-0.082,-0.702,1.404,0.275,100.000,103469.000,1.000
3.448,-7.049,-2.868,2.859,-1.458,-3.766,-10.197,-0.629,-0.015,0.965,-0.086,-0.702,1.343,0.305,100.000,103470.000,1.000
6.428,-7.070,-0.982,4.055,-0.338,-4.897,-9.678,-1.546,-0.016,0.965,-0.082,-0.763,1.343,0.275,100.000,103471.000,1.000
10.806,-1.193,5.216,7.635,4.000,1.939,-3.385,1.413,-0.014,0.965,-0.082,-0.885,1.404,0.214,100.000,103472.000,1.000
9.872,3.009,6.679,5.655,4.164,6.237,0.229,1.984,-0.013,0.966,-0.081,-0.885,1.404,0.092,100.000,103473.000,1.000
5.819,2.704,5.186,-0.966,-0.257,2.968,-2.196,-2.037,-0.015,0.967,-0.080,-0.885,1.282,0.092,100.000,103474.000,1.000
6.111,2.594,7.794,-4.797,-2.191,-1.044,-4.925,-5.326,-0.016,0.966,-0.083,-0.946,1.190,0.183,100.000,103475.000,1.000
7.571,3.452,10.438,-5.976,-0.003,-1.022,-4.989,-5.789,-0.017,0.968,-0.081,-1.038,1.160,0.183,100.000,103476.000,1.000
5.464,5.277,10.402,-6.312,3.370,3.750,-3.190,-5.159,-0.016,0.968,-0.083,-1.129,1.038,0.214,100.000,103477.000,1.000
-2.501,4.156,5.175,-9.891,3.178,5.912,-4.835,-8.920,-0.017,0.969,-0.084,-1.160,1.099,0.214,100.000,103478.000,1.000
-9.671,-0.457,0.673,-13.810,1.554,2.677,-9.757,-15.783,-0.018,0.969,-0.084,-1.221,1.038,0.244,100.000,103479.000,1.000
-10.056,-5.130,1.346,-12.324,3.033,-1.969,-13.049,-17.668,-0.017,0.968,-0.082,-1.343,0.977,0.275,100.000,103480.000,1.000
-6.902,-6.422,4.465,-5.927,7.002,-3.686,-11.483,-11.524,-0.017,0.970,-0.081,-1.404,1.129,0.183,100.000,103481.000,1.000
-3.748,-1.793,9.874,2.548,11.746,0.823,-4.693,-1.760,-0.015,0.969,-0.080,-1.556,1.007,0.183,100.000,103482.000,1.000
-4.961,1.514,10.996,6.343,14.128,4.900,0.491,3.193,-0.017,0.969,-0.079,-1.648,1.007,0.153,100.000,103483.000,1.000
-5.795,0.379,10.115,6.673,15.421,4.332,1.743,3.506,-0.015,0.968,-0.080,-1.709,0.946,0.183,100.000,103484.000,1.000
-1.964,-2.467,12.003,6.599,16.449,-0.453,0.318,2.581,-0.018,0.968,-0.081,-1.801,0.946,0.305,100.000,103485.000,1.000
0.560,-4.571,13.949,4.945,15.488,-6.034,-2.690,0.434,-0.017,0.967,-0.081,-1.770,0.824,0.275,100.000,103486.000,1.000
0.427,0.381,17.860,5.297,15.590,-2.933,-1.603,0.590,-0.015,0.967,-0.079,-1.892,0.885,0.336,100.000,103487.000,1.000
-1.766,8.729,19.903,6.172,16.579,5.743,2.963,2.297,-0.016,0.968,-0.078,-1.923,0.793,0.275,100.000,103488.000,1.000
-2.985,11.503,19.221,5.600,16.598,10.092,6.242,1.629,-0.016,0.966,-0.078,-1.801,0.885,0.336,100.000,103489.000,1.000
-3.182,5.652,16.473,2.635,14.331,5.334,4.151,-3.290,-0.015,0.966,-0.078,-1.801,0.885,0.397,100.000,103490.000,1.000
-4.830,-1.690,11.995,-1.758,10.831,-3.158,-1.405,-9.224,-0.015,0.965,-0.079,-1.709,0.793,0.336,100.000,103491.000,1.000
-3.167,1.336,13.002,-0.248,11.930,-1.842,-0.901,-7.746,-0.017,0.965,-0.078,-1.801,0.824,0.397,100.000,103492.000,1.000
0.209,9.142,15.282,4.577,16.247,6.755,4.847,0.010,-0.015,0.965,-0.080,-1.831,0.977,0.488,100.000,103493.000,1.000
2.377,11.040,14.532,6.715,19.092,10.701,8.130,6.464,-0.013,0.962,-0.076,-1.770,1.007,0.397,100.000,103494.000,1.000
3.662,5.944,10.809,3.903,17.890,5.017,4.347,6.135,-0.013,0.962,-0.079,-1.801,0.977,0.458,100.000,103495.000,1.000
4.220,-0.017,6.173,-1.489,13.529,-3.099,-2.739,0.477,-0.013,0.961,-0.078,-1.740,1.038,0.488,100.000,103496.000,1.000
7.120,1.850,8.559,-1.105,11.660,-0.779,-2.753,-1.144,-0.014,0.961,-0.080,-1.648,1.007,0.458,100.000,103497.000,1.000
9.561,7.265,12.987,3.040,11.736,6.791,2.479,1.828,-0.016,0.959,-0.077,-1.465,1.038,0.610,100.000,103498.000,1.000
11.674,9.340,14.803,6.474,11.968,8.888,5.188,3.627,-0.014,0.960,-0.075,-1.465,1.221,0.610,100.000,103499.000,1.000
15.282,6.445,14.560,8.353,12.073,4.116,2.258,1.693,-0.014,0.962,-0.077,-1.434,1.221,0.580,100.000,103500.000,1.000
18.420,1.615,14.139,9.460,11.323,-1.165,-2.821,-1.804,-0.015,0.960,-0.076,-1.404,1.312,0.580,100.000,103501.000,1.000
22.920,4.718,20.179,14.038,12.532,2.633,-1.154,-0.511,-0.014,0.963,-0.077,-1.282,1.404,0.580,100.000,103502.000,1.000
25.457,13.349,26.073,17.748,14.698,10.257,5.386,3.727,-0.013,0.963,-0.077,-1.221,1.434,0.580,100.000,103503.000,1.000
25.235,17.316,27.000,17.679,16.373,12.693,9.393,5.495,-0.013,0.965,-0.076,-1.282,1.465,0.549,100.000,103504.000,1.000
25.155,13.317,25.348,15.889,17.260,8.921,8.315,4.043,-0.011,0.965,-0.075,-1.343,1.495,0.763,100.000,103505.000,1.000
23.934,7.148,23.046,13.689,16.755,4.049,5.231,1.892,-0.012,0.965,-0.071,-1.282,1.526,0.702,100.000,103506.000,1.000
21.696,7.569,24.303,13.774,17.153,6.183,5.697,2.444,-0.012,0.968,-0.073,-1.221,1.648,0.763,100.000,103507.000,1.000
16.765,10.293,23.812,12.507,17.477,11.157,7.426,2.941,-0.013,0.968,-0.076,-1.251,1.709,0.702,100.000,103508.000,1.000
13.146,10.519,21.787,10.112,17.770,12.991,8.092,1.795,-0.013,0.969,-0.079,-1.221,1.831,0.610,100.000,103509.000,1.000
13.566,8.567,21.004,8.883,17.908,11.006,6.913,-0.386,-0.012,0.968,-0.077,-1.312,1.801,0.641,100.000,103510.000,1.000
12.839,4.523,18.768,7.214,16.149,7.504,4.022,-3.515,-0.012,0.969,-0.077,-1.343,1.801,0.610,100.000,103511.000,1.000
11.276,2.860,18.032,6.965,15.069,8.410,4.069,-4.536,-0.012,0.968,-0.077,-1.282,1.923,0.549,100.000,103512.000,1.000
9.880,2.642,16.886,5.986,14.102,10.040,5.419,-4.954,-0.013,0.967,-0.076,-1.373,1.984,0.458,100.000,103513.000,1.000
12.247,2.848,17.603,5.251,13.234,9.575,6.811,-5.215,-0.015,0.967,-0.075,-1.251,1.953,0.397,100.000,103514.000,1.000
18.682,4.662,21.392,6.864,13.855,9.016,9.434,-3.507,-0.016,0.965,-0.077,-1.251,2.014,0.397,100.000,103515.000,1.000
22.031,6.434,22.405,8.163,14.298,8.133,11.419,-2.124,-0.013,0.967,-0.075,-1.282,2.106,0.458,100.000,103516.000,1.000
21.523,8.226,21.329,9.528,14.081,8.591,13.070,-1.480,-0.013,0.966,-0.074,-1.373,2.045,0.336,100.000,103517.000,1.000
18.644,7.613,16.564,8.681,12.323,8.311,13.827,-1.201,-0.015,0.968,-0.075,-1.312,2.014,0.336,100.000,103518.000,1.000
18.429,6.848,12.780,7.239,11.561,8.383,14.592,-0.701,-0.014,0.965,-0.075,-1.373,1.984,0.275,100.000,103519.000,1.000
23.005,8.840,13.955,7.760,12.619,9.741,14.416,-2.053,-0.014,0.966,-0.075,-1.373,2.075,0.275,100.000,103520.000,1.000
27.378,11.817,16.353,8.616,12.473,9.895,12.186,-6.370,-0.015,0.968,-0.075,-1.251,2.106,0.122,100.000,103521.000,1.000
30.103,16.069,20.337,10.464,12.367,11.481,12.530,-8.208,-0.016,0.968,-0.074,-1.251,2.045,0.153,100.000,103522.000,1.000
28.219,16.752,20.385,9.374,11.530,12.257,13.763,-7.901,-0.017,0.968,-0.077,-1.343,2.014,0.183,100.000,103523.000,1.000
24.356,13.663,17.237,6.037,9.515,11.328,12.958,-8.580,-0.016,0.966,-0.077,-1.221,2.014,0.244,100.000,103524.000,1.000
22.593,11.568,15.168,3.519,7.117,10.307,10.187,-10.995,-0.016,0.966,-0.075,-1.160,1.923,0.183,100.000,103525.000,1.000
19.806,10.342,13.172,0.041,4.469,8.236,6.128,-15.267,-0.017,0.966,-0.076,-1.221,1.953,0.153,100.000,103526.000,1.000
16.034,10.479,14.036,-2.645,3.941,7.558,5.022,-17.743,-0.017,0.966,-0.075,-1.312,1.862,0.214,100.000,103527.000,1.000
11.727,9.617,14.253,-4.736,3.950,6.699,6.561,-17.093,-0.020,0.966,-0.074,-1.312,1.892,0.122,100.000,103528.000,1.000
9.987,7.807,13.549,-4.896,3.383,5.366,8.660,-13.737,-0.018,0.967,-0.073,-1.312,1.862,0.000,100.000,103529.000,1.000
11.008,6.118,12.547,-3.845,2.465,4.601,9.109,-10.453,-0.020,0.968,-0.076,-1.312,1.740,-0.031,100.000,103530.000,1.000
12.939,6.148,11.875,-3.183,2.796,5.992,8.741,-9.218,-0.019,0.967,-0.076,-1.312,1.801,0.031,100.000,103531.000,1.000
20.129,13.233,19.095,1.875,8.636,13.900,13.039,-5.944,-0.021,0.966,-0.073,-1.282,1.709,0.031,100.000,103532.000,1.000
27.116,20.847,27.332,6.760,15.265,20.570,17.494,-2.976,-0.020,0.966,-0.073,-1.312,1.617,0.092,100.000,103533.000,1.000
28.110,22.986,30.332,6.942,17.691,20.505,17.381,-4.338,-0.021,0.967,-0.072,-1.343,1.465,0.153,100.000,103534.000,1.000
25.161,22.698,30.002,5.104,17.122,18.128,15.114,-8.112,-0.023,0.967,-0.073,-1.373,1.495,0.122,100.000,103535.000,1.000
20.124,21.084,27.117,3.515,15.196,16.147,13.013,-10.980,-0.021,0.967,-0.072,-1.282,1.587,0.183,100.000,103536.000,1.000
15.997,18.814,25.166,4.171,14.099,15.878,12.623,-10.789,-0.020,0.966,-0.075,-1.221,1.495,0.153,100.000,103537.000,1.000
10.784,14.292,20.792,3.255,12.048,13.999,11.474,-11.076,-0.020,0.963,-0.073,-1.221,1.312,0.183,100.000,103538.000,1.000
7.109,12.036,18.075,3.282,10.546,13.799,12.155,-10.890,-0.020,0.965,-0.074,-1.160,1.343,0.214,100.000,103539.000,1.000
8.039,15.528,21.123,7.802,12.618,19.250,17.100,-6.779,-0.020,0.966,-0.075,-1.160,1.312,0.275,100.000,103540.000,1.000
7.433,17.427,21.421,10.323,14.362,23.476,20.116,-3.298,-0.020,0.965,-0.073,-1.160,1.251,0.214,100.000,103541.000,1.000
3.665,14.596,16.514,8.317,12.435,22.458,18.272,-3.912,-0.019,0.965,-0.074,-1.129,1.160,0.275,100.000,103542.000,1.000
-1.305,9.867,8.733,3.592,7.237,17.437,13.606,-7.425,-0.020,0.965,-0.074,-1.038,1.190,0.305,100.000,103543.000,1.000
-2.761,9.850,6.577,1.486,4.236,15.570,12.361,-8.513,-0.019,0.966,-0.075,-1.007,1.129,0.427,100.000,103544.000,1.000
-1.162,13.793,10.155,1.696,5.209,18.173,15.614,-5.976,-0.021,0.965,-0.074,-1.038,1.007,0.458,100.000,103545.000,1.000
-1.425,15.010,11.012,-0.463,6.338,19.169,18.192,-4.764,-0.019,0.966,-0.074,-0.946,0.977,0.458,100.000,103546.000,1.000
0.134,16.439,12.480,-1.152,7.815,20.984,20.388,-4.993,-0.021,0.963,-0.074,-1.007,0.946,0.458,100.000,103547.000,1.000
2.415,17.942,13.520,-0.554,8.248,24.239,21.917,-5.848,-0.020,0.964,-0.079,-0.977,0.977,0.549,100.000,103548.000,1.000
2.528,17.273,12.473,-0.252,7.168,27.208,22.759,-6.476,-0.019,0.963,-0.079,-0.946,0.854,0.458,100.000,103549.000,1.000
1.191,15.174,9.730,-0.516,5.629,27.472,22.370,-6.939,-0.020,0.963,-0.077,-0.946,0.854,0.488,100.000,103550.000,1.000
-0.768,12.909,5.950,-1.085,4.000,23.713,20.143,-7.717,-0.021,0.962,-0.076,-0.916,0.824,0.519,100.000,103551.000,1.000
0.354,14.676,7.758,3.219,5.148,22.229,19.960,-6.183,-0.019,0.962,-0.077,-0.793,0.916,0.488,100.000,103552.000,1.000
1.174,16.905,10.673,9.403,6.984,22.394,20.071,-5.064,-0.019,0.964,-0.075,-0.793,0.916,0.549,100.000,103553.000,1.000
-0.641,15.314,10.723,13.324,6.989,20.924,18.683,-5.931,-0.020,0.967,-0.074,-0.732,0.885,0.549,100.000,103554.000,1.000
-3.659,9.748,8.267,13.843,5.084,17.314,16.436,-6.665,-0.022,0.965,-0.075,-0.732,0.824,0.519,100.000,103555.000,1.000
-6.777,2.951,4.210,11.178,2.573,13.093,14.350,-6.721,-0.022,0.965,-0.077,-0.641,0.702,0.427,100.000,103556.000,1.000
-5.814,1.845,4.632,10.439,2.964,12.850,15.763,-4.588,-0.023,0.964,-0.078,-0.641,0.702,0.366,100.000,103557.000,1.000
-5.900,1.726,4.107,8.715,2.569,11.066,15.931,-3.450,-0.022,0.964,-0.078,-0.610,0.671,0.427,100.000,103558.000,1.000
-9.483,-1.532,2.179,5.906,0.075,6.843,13.194,-3.263,-0.020,0.964,-0.079,-0.580,0.732,0.427,100.000,103559.000,1.000
-10.725,-2.922,4.814,6.938,0.027,7.790,13.691,0.464,-0.018,0.963,-0.076,-0.519,0.702,0.488,100.000,103560.000,1.000
-9.642,-3.418,7.698,8.443,1.197,11.715,16.922,4.438,-0.017,0.963,-0.082,-0.427,0.671,0.641,100.000,103561.000,1.000
-8.484,-7.084,6.493,6.148,-0.636,11.284,16.583,2.937,-0.016,0.964,-0.078,-0.397,0.702,0.763,100.000,103562.000,1.000
-8.973,-13.260,0.355,-0.128,-6.300,4.224,9.771,-3.774,-0.015,0.964,-0.079,-0.427,0.854,0.916,100.000,103563.000,1.000
-6.126,-11.836,0.211,-1.808,-8.015,1.721,6.056,-6.948,-0.014,0.964,-0.078,-0.427,1.007,1.099,100.000,103564.000,1.000
0.154,-2.617,8.419,2.729,-3.560,8.335,9.859,-4.380,-0.017,0.965,-0.078,-0.305,1.099,1.160,100.000,103565.000,1.000
1.256,0.559,12.241,3.849,-1.865,12.403,11.882,-4.311,-0.020,0.964,-0.078,-0.214,1.282,1.312,100.000,103566.000,1.000
-0.658,-3.260,11.335,1.497,-4.680,10.322,9.695,-7.091,-0.020,0.965,-0.080,-0.305,1.312,1.404,100.000,103567.000,1.000
-1.514,-7.373,8.219,-1.004,-8.132,5.851,6.910,-8.539,-0.020,0.967,-0.079,-0.275,1.312,1.282,100.000,103568.000,1.000
-0.689,-7.762,6.149,-0.374,-9.039,4.699,7.342,-6.547,-0.020,0.966,-0.083,-0.244,1.282,1.282,100.000,103569.000,1.000
-0.670,-6.531,5.370,2.833,-8.646,7.261,10.249,-2.957,-0.020,0.966,-0.082,-0.397,1.221,1.343,100.000,103570.000,1.000
-3.834,-8.155,2.649,4.003,-9.856,8.421,11.622,-1.589,-0.019,0.968,-0.081,-0.427,1.282,1.434,100.000,103571.000,1.000
-5.757,-10.893,1.275,4.028,-10.903,7.759,11.636,-1.525,-0.020,0.967,-0.080,-0.366,1.373,1.373,100.000,103572.000,1.000
-8.995,-17.176,-2.742,1.085,-13.629,2.302,8.402,-3.351,-0.021,0.968,-0.080,-0.427,1.343,1.404,100.000,103573.000,1.000
-15.010,-25.292,-7.828,-2.721,-18.142,-4.701,3.934,-6.231,-0.023,0.970,-0.079,-0.488,1.343,1.282,100.000,103574.000,1.000
-19.672,-28.279,-9.336,-3.923,-21.217,-7.029,2.435,-7.811,-0.026,0.972,-0.078,-0.580,1.221,1.099,100.000,103575.000,1.000
-22.435,-27.115,-11.720,-5.733,-22.922,-7.957,2.399,-8.847,-0.024,0.971,-0.077,-0.732,1.221,1.007,100.000,103576.000,1.000
-21.391,-25.110,-14.316,-7.909,-22.676,-9.909,2.780,-8.726,-0.025,0.970,-0.081,-0.763,1.099,0.916,100.000,103577.000,1.000
-18.433,-25.792,-16.943,-10.976,-22.029,-13.789,2.007,-9.606,-0.024,0.972,-0.082,-0.946,1.068,0.702,100.000,103578.000,1.000
-15.608,-26.735,-17.522,-13.707,-21.763,-15.826,1.979,-12.402,-0.023,0.971,-0.082,-1.038,1.007,0.641,100.000,103579.000,1.000
-14.895,-25.101,-17.622,-14.969,-22.045,-13.925,4.420,-14.767,-0.022,0.970,-0.083,-1.160,0.946,0.519,100.000,103580.000,1.000
-17.393,-23.086,-20.697,-15.589,-23.497,-12.177,6.605,-16.193,-0.022,0.972,-0.082,-1.282,0.854,0.519,100.000,103581.000,1.000
-17.962,-21.045,-21.164,-13.854,-23.925,-11.675,6.643,-17.265,-0.018,0.971,-0.081,-1.526,0.916,0.458,100.000,103582.000,1.000
-19.519,-23.584,-22.561,-14.553,-25.212,-15.169,1.365,-20.917,-0.016,0.968,-0.082,-1.587,0.977,0.610,100.000,103583.000,1.000
-24.363,-29.808,-26.357,-17.863,-28.016,-19.666,-5.734,-24.824,-0.016,0.968,-0.079,-1.556,1.068,0.641,100.000,103584.000,1.000
-28.013,-33.348,-28.509,-19.041,-30.496,-20.509,-9.029,-24.867,-0.015,0.967,-0.080,-1.587,1.099,0.854,100.000,103585.000,1.000
-26.590,-32.304,-26.823,-16.742,-31.527,-18.516,-8.061,-21.722,-0.015,0.966,-0.079,-1.648,1.221,1.099,100.000,103586.000,1.000
-16.998,-25.410,-16.695,-9.129,-28.197,-12.348,-2.405,-16.187,-0.015,0.968,-0.079,-1.770,1.221,1.190,100.000,103587.000,1.000
-7.248,-18.112,-6.131,-2.629,-23.531,-6.347,3.200,-13.295,-0.014,0.968,-0.080,-1.801,1.373,1.251,100.000,103588.000,1.000
-3.270,-13.330,-0.706,-0.765,-20.512,-2.334,6.554,-14.747,-0.016,0.966,-0.080,-1.801,1.526,1.343,100.000,103589.000,1.000
-2.070,-9.673,1.213,-0.456,-18.478,1.594,8.814,-16.544,-0.016,0.966,-0.077,-1.770,1.526,1.465,100.000,103590.000,1.000
-1.512,-8.564,0.484,-0.199,-17.319,4.065,9.466,-16.628,-0.018,0.965,-0.079,-1.862,1.678,1.434,100.000,103591.000,1.000
1.264,-6.952,3.499,3.725,-14.852,8.392,11.980,-12.817,-0.018,0.965,-0.081,-1.831,1.740,1.404,100.000,103592.000,1.000
4.678,-3.001,9.419,10.497,-10.662,15.878,17.568,-6.115,-0.018,0.964,-0.079,-1.862,1.770,1.404,100.000,103593.000,1.000
10.211,4.349,17.897,19.543,-3.595,26.080,25.662,1.944,-0.019,0.965,-0.079,-1.801,1.831,1.404,100.000,103594.000,1.000
17.918,11.379,25.926,27.403,3.660,34.031,32.389,8.014,-0.017,0.963,-0.077,-1.831,1.770,1.404,100.000,103595.000,1.000
20.983,11.334,26.800,28.188,5.262,33.882,34.126,8.452,-0.016,0.961,-0.074,-1.831,1.831,1.404,100.000,103596.000,1.000
20.111,8.842,26.009,26.754,4.197,31.345,35.806,7.791,-0.016,0.962,-0.077,-1.801,1.892,1.312,100.000,103597.000,1.000
17.595,8.276,25.126,26.615,3.848,29.716,38.302,8.147,-0.015,0.960,-0.077,-1.678,1.862,1.282,100.000,103598.000,1.000
16.467,10.433,24.303,28.823,4.909,29.694,39.882,9.013,-0.013,0.959,-0.080,-1.678,1.923,1.251,100.000,103599.000,1.000
16.192,12.567,21.538,30.675,5.416,29.951,39.030,10.183,-0.014,0.959,-0.079,-1.556,2.075,1.221,100.000,103600.000,1.000
12.137,10.442,14.002,27.602,2.807,27.105,34.423,9.413,-0.012,0.959,-0.077,-1.526,2.228,1.251,100.000,103601.000,1.000
8.609,8.295,10.543,24.796,0.623,25.341,30.928,7.948,-0.014,0.960,-0.081,-1.373,2.258,1.129,100.000,103602.000,1.000
7.870,7.873,11.323,23.995,-0.198,25.602,30.577,6.739,-0.015,0.961,-0.076,-1.343,2.380,1.190,100.000,103603.000,1.000
10.573,10.638,13.934,25.461,1.041,29.325,34.123,7.575,-0.015,0.961,-0.075,-1.312,2.441,1.160,100.000,103604.000,1.000
14.803,15.265,16.493,28.294,3.874,36.213,39.115,9.743,-0.013,0.963,-0.079,-1.190,2.563,1.099,100.000,103605.000,1.000
13.683,13.393,13.629,26.722,3.103,38.161,39.244,8.746,-0.014,0.964,-0.079,-1.038,2.594,1.221,100.000,103606.000,1.000
9.786,6.022,9.977,22.340,-0.692,34.158,35.866,6.778,-0.014,0.965,-0.077,-1.038,2.716,1.099,100.000,103607.000,1.000
7.978,-1.033,8.816,18.521,-4.418,28.454,31.396,5.668,-0.014,0.965,-0.074,-1.068,2.777,1.160,100.000,103608.000,1.000
11.639,-2.466,13.878,19.222,-5.072,28.629,29.274,4.929,-0.015,0.966,-0.075,-0.977,2.869,1.038,100.000,103609.000,1.000
17.775,0.875,22.320,22.314,-3.280,34.938,31.124,3.645,-0.014,0.965,-0.074,-0.916,2.899,1.038,100.000,103610.000,1.000
18.245,2.542,24.041,19.449,-3.340,37.629,32.318,0.240,-0.014,0.963,-0.075,-0.885,2.991,1.099,100.000,103611.000,1.000
14.776,2.679,21.952,12.125,-4.647,35.335,31.297,-3.172,-0.015,0.966,-0.073,-0.854,3.052,1.038,100.000,103612.000,1.000
9.217,0.019,18.951,3.784,-7.095,30.276,28.052,-6.697,-0.014,0.967,-0.073,-0.885,2.991,1.129,100.000,103613.000,1.000
3.239,-3.724,17.903,-1.397,-8.981,27.613,25.616,-9.046,-0.014,0.966,-0.075,-0.854,3.052,1.160,100.000,103614.000,1.000
-1.945,-4.278,18.522,-2.405,-8.344,30.045,24.901,-8.654,-0.014,0.967,-0.077,-0.793,3.143,1.251,100.000,103615.000,1.000
-7.421,-2.767,17.310,-2.767,-6.677,32.753,23.959,-7.571,-0.013,0.967,-0.075,-0.763,3.235,1.312,100.000,103616.000,1.000
-8.649,0.339,19.425,-0.168,-2.804,34.718,26.618,-4.007,-0.014,0.968,-0.077,-0.854,3.235,1.282,100.000,103617.000,1.000
-7.241,0.964,21.534,2.926,1.478,33.797,31.398,0.892,-0.015,0.969,-0.076,-0.793,3.326,1.160,100.000,103618.000,1.000
-5.113,1.049,22.004,4.780,4.566,32.416,34.547,4.086,-0.014,0.971,-0.074,-0.977,3.296,1.221,100.000,103619.000,1.000
-1.014,6.004,24.327,7.427,6.811,35.019,35.533,5.015,-0.016,0.971,-0.076,-1.007,3.326,1.221,100.000,103620.000,1.000
1.213,10.163,25.852,9.241,6.710,37.269,33.408,3.028,-0.016,0.970,-0.075,-0.946,3.265,1.251,100.000,103621.000,1.000
1.032,8.956,25.721,9.961,5.663,35.143,30.132,0.476,-0.017,0.969,-0.079,-0.916,3.296,1.312,100.000,103622.000,1.000
0.055,5.402,22.259,8.215,4.852,28.735,27.110,-0.634,-0.019,0.970,-0.080,-0.885,3.235,1.312,100.000,103623.000,1.000
3.431,8.545,22.596,8.075,6.407,27.506,27.507,1.984,-0.019,0.970,-0.080,-0.946,3.204,1.282,100.000,103624.000,1.000
11.359,19.196,29.543,11.774,10.308,35.622,31.170,7.176,-0.018,0.971,-0.081,-1.068,3.082,1.312,100.000,103625.000,1.000
15.743,26.643,33.353,13.661,12.675,42.375,33.233,10.069,-0.016,0.972,-0.075,-1.068,2.991,1.282,100.000,103626.000,1.000
15.689,26.342,32.531,13.735,12.605,41.402,34.192,11.131,-0.018,0.969,-0.073,-1.068,2.838,1.282,100.000,103627.000,1.000
12.668,19.729,27.389,12.368,9.245,33.727,34.464,10.586,-0.016,0.967,-0.078,-1.190,2.930,1.129,100.000,103628.000,1.000
10.095,14.312,22.382,10.575,5.130,27.611,34.609,8.013,-0.015,0.966,-0.073,-1.160,2.777,1.129,100.000,103629.000,1.000
8.084,11.956,17.932,6.991,1.640,25.846,32.638,2.603,-0.016,0.964,-0.075,-1.160,2.716,1.068,100.000,103630.000,1.000
3.132,5.898,9.715,-0.188,-3.508,22.033,26.096,-4.546,-0.015,0.965,-0.080,-1.160,2.655,1.038,100.000,103631.000,1.000
0.394,-0.997,4.876,-3.890,-7.591,17.456,20.759,-6.035,-0.016,0.964,-0.079,-0.977,2.563,1.221,100.000,103632.000,1.000
0.087,-5.774,3.238,-4.157,-10.416,14.016,18.427,-2.300,-0.014,0.967,-0.079,-0.946,2.563,1.190,100.000,103633.000,1.000
-0.387,-8.239,1.703,-4.494,-13.209,13.651,16.924,0.062,-0.016,0.966,-0.078,-0.977,2.563,1.221,100.000,103634.000,1.000
-0.240,-8.815,-0.028,-5.150,-16.351,15.362,13.996,-2.465,-0.014,0.964,-0.079,-0.916,2.533,1.404,100.000,103635.000,1.000
1.640,-9.718,-1.095,-5.427,-19.923,14.226,9.794,-8.036,-0.014,0.965,-0.082,-0.977,2.533,1.495,100.000,103636.000,1.000
8.267,-8.921,4.387,-2.056,-19.924,12.440,9.893,-9.057,-0.015,0.963,-0.081,-0.946,2.502,1.526,100.000,103637.000,1.000
13.178,-8.811,9.553,-0.251,-17.741,9.497,11.738,-5.990,-0.017,0.965,-0.078,-0.824,2.350,1.434,100.000,103638.000,1.000
11.760,-9.431,10.279,-2.493,-16.278,6.918,11.453,-4.434,-0.017,0.966,-0.077,-0.854,2.380,1.465,100.000,103639.000,1.000
7.369,-7.566,9.763,-5.175,-15.155,8.019,10.679,-6.326,-0.019,0.965,-0.080,-0.824,2.289,1.404,100.000,103640.000,1.000
2.426,-4.677,8.087,-7.454,-13.389,9.833,10.569,-10.050,-0.018,0.964,-0.076,-0.824,2.197,1.160,100.000,103641.000,1.000
0.696,-0.503,8.957,-7.340,-8.828,11.376,12.180,-10.848,-0.019,0.963,-0.081,-0.824,2.106,1.160,100.000,103642.000,1.000
-0.697,1.218,7.749,-8.517,-5.742,9.596,11.644,-11.146,-0.019,0.964,-0.077,-0.641,2.014,1.129,100.000,103643.000,1.000
-2.188,0.323,4.360,-10.960,-6.560,6.261,8.967,-14.431,-0.018,0.965,-0.078,-0.549,1.923,1.038,100.000,103644.000,1.000
-0.013,1.623,4.547,-10.401,-7.457,6.519,8.544,-18.047,-0.017,0.964,-0.074,-0.549,1.892,1.068,100.000,103645.000,1.000
2.821,3.329,6.490,-8.514,-7.105,8.255,9.725,-19.509,-0.016,0.963,-0.079,-0.580,1.953,0.977,100.000,103646.000,1.000
3.042,1.764,7.659,-7.468,-6.843,7.485,9.177,-19.485,-0.014,0.961,-0.079,-0.519,1.801,0.854,100.000,103647.000,1.000
-1.402,-5.186,2.767,-10.579,-9.670,-0.074,2.678,-22.614,-0.014,0.962,-0.080,-0.336,1.678,0.824,100.000,103648.000,1.000
-3.528,-8.991,-1.226,-12.458,-11.403,-7.188,-3.912,-25.041,-0.012,0.962,-0.079,-0.336,1.801,0.793,100.000,103649.000,1.000
2.055,-3.137,3.139,-7.180,-7.284,-5.272,-2.863,-19.550,-0.012,0.963,-0.080,-0.336,1.862,0.946,100.000,103650.000,1.000
7.766,4.032,8.068,-0.162,-1.477,0.102,1.690,-10.528,-0.012,0.964,-0.076,-0.214,1.953,0.885,100.000,103651.000,1.000
9.580,7.243,9.530,4.526,2.440,2.805,3.707,-5.068,-0.012,0.965,-0.074,-0.305,1.923,0.885,100.000,103652.000,1.000
7.279,6.250,5.911,4.162,2.709,-0.128,0.409,-5.666,-0.011,0.966,-0.078,-0.366,1.984,0.977,100.000,103653.000,1.000
5.801,5.740,3.658,2.939,2.490,-2.717,-2.268,-6.120,-0.012,0.966,-0.079,-0.366,1.923,0.977,100.000,103654.000,1.000
8.757,8.953,6.803,5.226,4.482,0.329,0.197,-1.774,-0.012,0.969,-0.081,-0.397,1.892,0.916,100.000,103655.000,1.000
11.527,11.435,8.293,6.215,4.810,3.344,1.608,0.991,-0.011,0.970,-0.080,-0.549,1.953,0.977,100.000,103656.000,1.000
12.506,11.238,7.155,3.704,2.047,3.417,-1.915,-2.002,-0.012,0.968,-0.078,-0.641,1.923,1.038,100.000,103657.000,1.000
10.793,7.670,3.418,-1.616,-2.492,0.590,-8.660,-7.692,-0.013,0.969,-0.080,-0.702,1.953,1.007,100.000,103658.000,1.000
10.913,6.156,4.308,-2.238,-3.445,1.001,-10.762,-8.173,-0.013,0.968,-0.077,-0.732,1.953,0.885,100.000,103659.000,1.000
14.582,8.761,11.072,3.605,-0.456,5.825,-6.946,-3.304,-0.012,0.966,-0.081,-0.854,2.014,0.916,100.000,103660.000,1.000
14.515,7.448,11.947,5.838,-1.040,5.778,-6.110,-1.640,-0.010,0.965,-0.082,-1.007,1.831,0.854,100.000,103661.000,1.000
12.902,3.282,8.326,4.205,-4.011,1.694,-8.790,-2.465,-0.010,0.965,-0.077,-0.977,1.953,0.854,100.000,103662.000,1.000
13.583,0.609,4.832,2.932,-4.695,-2.461,-11.520,-1.819,-0.012,0.965,-0.078,-1.007,1.953,0.916,100.000,103663.000,1.000
16.204,0.506,4.639,4.028,-2.601,-5.288,-12.149,0.671,-0.012,0.965,-0.079,-1.160,2.075,0.854,100.000,103664.000,1.000
16.795,0.770,5.823,4.603,-1.507,-7.811,-11.744,2.241,-0.013,0.966,-0.081,-1.129,2.075,0.793,100.000,103665.000,1.000
11.942,-0.212,3.609,0.835,-3.824,-11.337,-13.031,-0.415,-0.011,0.965,-0.080,-1.251,1.984,0.763,100.000,103666.000,1.000
8.124,2.777,3.014,-2.390,-4.988,-10.989,-13.741,-4.431,-0.013,0.964,-0.079,-1.221,2.075,0.763,100.000,103667.000,1.000
6.340,6.720,1.113,-4.918,-5.255,-9.183,-14.823,-7.746,-0.013,0.964,-0.080,-1.312,2.045,0.763,100.000,103668.000,1.000
3.527,6.470,-3.916,-7.638,-7.034,-9.992,-16.415,-8.478,-0.014,0.962,-0.078,-1.282,1.953,0.641,100.000,103669.000,1.000
-0.339,4.116,-7.720,-9.012,-8.624,-12.154,-15.820,-4.761,-0.013,0.964,-0.080,-1.373,1.984,0.641,100.000,103670.000,1.000
-2.977,4.317,-8.119,-8.508,-6.632,-11.572,-11.219,2.621,-0.012,0.965,-0.080,-1.282,1.984,0.702,100.000,103671.000,1.000
-0.490,9.283,-4.191,-5.137,-0.870,-4.480,-3.255,11.232,-0.013,0.966,-0.078,-1.251,1.923,0.580,100.000,103672.000,1.000
0.587,9.478,-5.881,-5.718,-0.494,-0.558,-1.523,12.532,-0.012,0.967,-0.080,-1.251,1.953,0.610,100.000,103673.000,1.000
-0.326,4.378,-9.992,-8.238,-5.009,-2.786,-5.940,7.616,-0.014,0.964,-0.079,-1.282,1.953,0.549,100.000,103674.000,1.000
3.824,3.718,-5.566,-4.534,-4.358,-2.609,-6.038,7.421,-0.016,0.963,-0.080,-1.251,1.892,0.427,100.000,103675.000,1.000
9.591,5.875,1.137,1.138,-0.160,-0.426,-2.245,11.774,-0.015,0.964,-0.081,-1.251,1.801,0.458,100.000,103676.000,1.000
12.408,6.101,2.843,3.652,0.709,0.191,-1.170,13.989,-0.014,0.965,-0.083,-1.282,1.801,0.366,100.000,103677.000,1.000
9.698,1.084,-3.984,0.668,-3.795,-3.409,-6.045,10.825,-0.014,0.966,-0.085,-1.282,1.862,0.397,100.000,103678.000,1.000
5.145,-6.526,-12.109,-3.812,-8.155,-8.118,-11.079,6.498,-0.016,0.965,-0.082,-1.251,1.831,0.366,100.000,103679.000,1.000
3.255,-11.650,-14.912,-5.898,-8.920,-11.411,-12.027,4.689,-0.017,0.965,-0.077,-1.251,1.831,0.397,100.000,103680.000,1.000
3.711,-12.059,-13.950,-5.633,-7.437,-12.822,-10.029,5.484,-0.018,0.965,-0.082,-1.282,1.740,0.397,100.000,103681.000,1.000
9.137,-4.704,-6.393,0.419,-1.910,-5.743,-2.759,11.736,-0.015,0.968,-0.082,-1.282,1.770,0.397,100.000,103682.000,1.000
13.581,2.514,-0.769,5.638,2.835,3.990,3.932,18.171,-0.016,0.969,-0.082,-1.343,1.648,0.336,100.000,103683.000,1.000
10.839,1.690,-3.774,3.051,0.927,4.914,2.475,17.598,-0.017,0.967,-0.081,-1.312,1.556,0.336,100.000,103684.000,1.000
4.689,-4.200,-10.431,-3.944,-4.551,-3.005,-4.365,12.960,-0.017,0.965,-0.082,-1.404,1.465,0.275,100.000,103685.000,1.000
1.201,-8.191,-14.290,-9.238,-7.110,-10.659,-8.674,10.741,-0.016,0.968,-0.082,-1.343,1.465,0.366,100.000,103686.000,1.000
3.841,-3.904,-10.239,-8.298,-3.854,-8.615,-5.795,13.387,-0.017,0.966,-0.080,-1.434,1.282,0.366,100.000,103687.000,1.000
4.921,1.455,-8.119,-7.589,-1.468,-4.222,-3.146,15.008,-0.018,0.967,-0.080,-1.465,1.160,0.305,100.000,103688.000,1.000
2.475,0.573,-10.678,-9.452,-2.485,-5.415,-4.614,14.539,-0.018,0.966,-0.079,-1.434,1.068,0.305,100.000,103689.000,1.000
2.408,-4.282,-10.720,-9.323,-3.432,-9.677,-6.349,15.923,-0.019,0.967,-0.079,-1.404,1.068,0.214,100.000,103690.000,1.000
3.836,-9.349,-9.119,-7.250,-4.596,-13.406,-7.656,17.338,-0.018,0.968,-0.079,-1.434,1.038,0.244,100.000,103691.000,1.000
5.881,-8.967,-6.493,-2.622,-4.702,-11.307,-7.199,18.166,-0.017,0.969,-0.079,-1.434,1.007,0.244,100.000,103692.000,1.000
5.445,-6.055,-8.137,0.503,-3.926,-6.910,-5.901,18.274,-0.016,0.967,-0.078,-1.495,1.099,0.244,100.000,103693.000,1.000
3.477,-5.175,-12.298,1.021,-3.000,-6.244,-4.598,18.532,-0.017,0.964,-0.081,-1.556,1.007,0.336,100.000,103694.000,1.000
3.142,-6.354,-13.583,1.328,-2.626,-9.902,-4.413,20.011,-0.016,0.966,-0.083,-1.587,1.007,0.275,100.000,103695.000,1.000
2.076,-8.893,-14.402,0.320,-4.133,-13.995,-6.455,20.753,-0.017,0.965,-0.080,-1.556,0.946,0.366,100.000,103696.000,1.000
0.863,-7.948,-14.298,-0.788,-5.606,-11.507,-7.363,19.645,-0.016,0.964,-0.077,-1.526,0.854,0.458,100.000,103697.000,1.000
-2.244,-5.351,-17.342,-4.778,-7.915,-7.779,-8.555,14.626,-0.015,0.964,-0.079,-1.526,0.885,0.488,100.000,103698.000,1.000
-5.463,-4.274,-20.727,-10.126,-10.028,-8.600,-10.218,8.949,-0.015,0.963,-0.081,-1.495,0.885,0.549,100.000,103699.000,1.000
-4.781,-4.475,-18.922,-11.747,-10.215,-11.298,-10.456,7.071,-0.014,0.965,-0.080,-1.495,0.916,0.458,100.000,103700.000,1.000
-2.932,-5.523,-15.725,-10.412,-10.844,-12.035,-10.448,6.713,-0.015,0.963,-0.080,-1.495,0.885,0.427,100.000,103701.000,1.000
-1.714,-3.443,-12.356,-7.519,-11.916,-6.879,-9.389,6.326,-0.015,0.963,-0.077,-1.434,0.793,0.580,100.000,103702.000,1.000
-4.090,-1.829,-13.654,-8.471,-14.210,-2.880,-9.991,4.238,-0.015,0.964,-0.081,-1.404,0.854,0.549,100.000,103703.000,1.000
-5.257,-3.222,-15.945,-10.506,-14.860,-4.838,-11.605,2.887,-0.013,0.964,-0.081,-1.404,0.977,0.580,100.000,103704.000,1.000
0.951,-4.427,-12.926,-7.111,-10.876,-8.987,-11.285,5.270,-0.013,0.964,-0.082,-1.312,1.007,0.671,100.000,103705.000,1.000
7.374,-5.884,-10.250,-2.726,-6.732,-13.478,-11.680,7.585,-0.013,0.965,-0.077,-1.282,1.007,0.641,100.000,103706.000,1.000
8.218,-6.670,-9.873,-0.940,-4.939,-15.066,-12.666,8.721,-0.013,0.966,-0.079,-1.282,1.099,0.702,100.000,103707.000,1.000
4.257,-7.684,-12.597,-2.284,-4.928,-14.760,-12.903,10.161,-0.014,0.966,-0.081,-1.282,1.068,0.671,100.000,103708.000,1.000
3.116,-7.573,-12.791,-1.957,-3.171,-12.988,-10.193,14.192,-0.015,0.967,-0.083,-1.343,1.129,0.763,100.000,103709.000,1.000
6.056,-7.419,-9.409,0.334,-0.732,-12.133,-7.584,18.183,-0.014,0.966,-0.080,-1.373,1.129,0.824,100.000,103710.000,1.000
5.072,-11.561,-10.978,-1.906,-2.718,-16.244,-10.473,16.764,-0.016,0.967,-0.080,-1.373,1.099,0.793,100.000,103711.000,1.000
3.130,-12.404,-13.127,-4.707,-4.588,-17.147,-12.337,15.157,-0.014,0.966,-0.083,-1.434,1.282,0.702,100.000,103712.000,1.000
2.672,-7.489,-13.474,-6.143,-3.743,-12.563,-9.738,16.670,-0.013,0.966,-0.081,-1.404,1.282,0.671,100.000,103713.000,1.000
1.390,-4.261,-13.450,-8.788,-3.743,-9.362,-7.871,17.117,-0.011,0.966,-0.077,-1.404,1.343,0.671,100.000,103714.000,1.000
-1.114,-5.923,-13.948,-12.622,-5.853,-10.477,-10.309,14.581,-0.010,0.967,-0.081,-1.343,1.495,0.702,100.000,103715.000,1.000
-4.252,-8.719,-16.032,-15.556,-7.679,-12.504,-14.065,11.859,-0.011,0.968,-0.080,-1.495,1.526,0.671,100.000,103716.000,1.000
-4.579,-7.139,-15.532,-13.647,-6.116,-10.036,-13.641,12.043,-0.013,0.965,-0.081,-1.526,1.556,0.641,100.000,103717.000,1.000
-4.717,-6.373,-16.983,-11.609,-5.256,-9.217,-13.561,10.710,-0.011,0.967,-0.079,-1.648,1.556,0.641,100.000,103718.000,1.000
-4.391,-8.400,-19.750,-11.332,-6.886,-13.124,-16.326,7.255,-0.012,0.967,-0.079,-1.648,1.617,0.610,100.000,103719.000,1.000
-0.136,-7.893,-18.241,-9.384,-7.330,-15.832,-17.418,7.207,-0.014,0.967,-0.079,-1.678,1.648,0.549,100.000,103720.000,1.000
5.065,-4.815,-14.659,-6.106,-4.909,-14.183,-15.092,11.101,-0.012,0.967,-0.081,-1.678,1.709,0.580,100.000,103721.000,1.000
9.677,-0.290,-9.781,-1.226,0.142,-7.872,-10.479,15.982,-0.014,0.969,-0.078,-1.709,1.770,0.488,100.000,103722.000,1.000
12.047,2.578,-8.206,1.605,3.406,-4.161,-8.569,17.725,-0.015,0.967,-0.076,-1.740,1.770,0.366,100.000,103723.000,1.000
16.680,6.477,-5.516,4.166,5.925,-3.494,-6.937,19.508,-0.016,0.967,-0.080,-1.801,1.801,0.488,100.000,103724.000,1.000
24.961,12.872,1.732,8.141,9.765,-1.317,-2.537,23.727,-0.015,0.966,-0.081,-1.770,1.862,0.427,100.000,103725.000,1.000
25.921,13.137,2.649,6.062,8.905,-2.033,-2.511,22.719,-0.015,0.967,-0.080,-1.709,1.892,0.427,100.000,103726.000,1.000
18.483,7.161,-3.190,-1.088,2.704,-6.335,-7.898,15.682,-0.015,0.967,-0.081,-1.801,1.831,0.427,100.000,103727.000,1.000
9.978,0.709,-10.270,-7.885,-4.422,-12.306,-14.107,8.549,-0.019,0.967,-0.081,-1.831,1.862,0.366,100.000,103728.000,1.000
6.908,-1.974,-12.680,-10.273,-8.477,-17.144,-18.311,4.423,-0.019,0.968,-0.077,-1.740,1.770,0.366,100.000,103729.000,1.000
7.954,-2.867,-11.898,-9.912,-10.115,-21.103,-22.601,1.042,-0.017,0.968,-0.078,-1.740,1.770,0.488,100.000,103730.000,1.000
5.646,-7.810,-15.755,-12.644,-13.557,-27.648,-28.785,-3.864,-0.019,0.965,-0.081,-1.801,1.740,0.458,100.000,103731.000,1.000
2.312,-12.082,-19.820,-15.188,-16.458,-31.287,-30.054,-5.155,-0.019,0.964,-0.079,-1.740,1.740,0.458,100.000,103732.000,1.000
1.932,-10.625,-20.396,-14.263,-15.010,-27.801,-23.487,-0.668,-0.019,0.965,-0.082,-1.678,1.648,0.366,100.000,103733.000,1.000
5.233,-4.519,-15.980,-9.701,-8.687,-18.500,-13.116,6.074,-0.021,0.965,-0.081,-1.587,1.617,0.427,100.000,103734.000,1.000
7.246,-0.795,-11.302,-6.576,-3.354,-11.228,-7.200,8.841,-0.019,0.967,-0.080,-1.587,1.678,0.549,100.000,103735.000,1.000
3.447,-3.312,-12.219,-9.051,-3.228,-11.369,-8.494,5.871,-0.020,0.967,-0.080,-1.617,1.617,0.519,100.000,103736.000,1.000
2.233,-2.543,-9.817,-8.922,-0.958,-9.043,-6.373,6.589,-0.021,0.964,-0.077,-1.617,1.404,0.458,100.000,103737.000,1.000
4.585,1.574,-5.236,-5.727,4.338,-2.772,-0.047,12.558,-0.018,0.965,-0.077,-1.648,1.526,0.427,100.000,103738.000,1.000
5.046,1.635,-4.089,-4.727,6.528,-0.091,1.473,15.513,-0.019,0.964,-0.077,-1.526,1.434,0.488,100.000,103739.000,1.000
3.802,-1.794,-5.461,-6.417,4.735,-2.667,-3.287,11.910,-0.018,0.967,-0.076,-1.556,1.343,0.488,100.000,103740.000,1.000
1.970,-4.812,-9.088,-10.091,1.784,-7.495,-8.694,5.174,-0.019,0.966,-0.075,-1.465,1.343,0.549,100.000,103741.000,1.000
1.632,-4.117,-11.216,-12.540,0.070,-9.186,-9.828,1.386,-0.020,0.966,-0.075,-1.465,1.312,0.549,100.000,103742.000,1.000
-0.737,-4.561,-14.757,-15.813,-3.601,-10.420,-10.754,-0.428,-0.020,0.966,-0.073,-1.495,1.251,0.580,100.000,103743.000,1.000
-4.462,-7.418,-18.212,-18.615,-8.230,-12.677,-12.813,-1.993,-0.019,0.967,-0.075,-1.465,1.221,0.610,100.000,103744.000,1.000
-4.505,-7.737,-17.502,-17.291,-9.430,-13.809,-13.386,-2.494,-0.018,0.966,-0.076,-1.465,1.251,0.610,100.000,103745.000,1.000
-2.213,-5.007,-15.100,-14.061,-7.976,-13.810,-12.660,-2.428,-0.017,0.966,-0.078,-1.404,1.190,0.671,100.000,103746.000,1.000
0.327,-1.044,-11.088,-9.711,-5.594,-10.915,-10.243,-0.960,-0.018,0.967,-0.079,-1.465,1.251,0.671,100.000,103747.000,1.000
-1.455,-2.779,-12.487,-8.402,-6.418,-10.575,-10.880,-1.451,-0.019,0.965,-0.079,-1.465,1.251,0.702,100.000,103748.000,1.000
-3.877,-7.827,-17.122,-8.322,-8.429,-12.837,-14.034,-3.186,-0.018,0.965,-0.077,-1.526,1.251,0.671,100.000,103749.000,1.000
-0.599,-6.826,-16.147,-4.299,-6.008,-10.841,-13.024,-0.470,-0.019,0.967,-0.080,-1.556,1.251,0.610,100.000,103750.000,1.000
3.087,-1.557,-12.249,-0.209,-1.995,-6.484,-8.572,4.543,-0.017,0.965,-0.075,-1.495,1.099,0.641,100.000,103751.000,1.000
4.099,3.373,-7.647,1.706,-0.140,-3.382,-4.889,7.363,-0.018,0.966,-0.077,-1.495,1.038,0.641,100.000,103752.000,1.000
2.189,3.665,-6.823,0.898,-1.451,-4.851,-6.190,6.493,-0.019,0.965,-0.077,-1.556,1.129,0.671,100.000,103753.000,1.000
1.226,1.611,-7.181,1.362,-1.843,-7.060,-8.968,6.096,-0.016,0.965,-0.078,-1.678,1.068,0.458,100.000,103754.000,1.000
3.205,1.544,-5.304,4.135,0.396,-6.416,-9.492,7.522,-0.017,0.965,-0.076,-1.648,1.221,0.580,100.000,103755.000,1.000
2.847,1.833,-6.046,3.511,0.763,-7.695,-11.452,5.743,-0.015,0.966,-0.077,-1.648,1.160,0.580,100.000,103756.000,1.000
1.570,4.150,-6.219,1.887,0.488,-9.959,-13.527,2.921,-0.016,0.965,-0.074,-1.587,1.129,0.641,100.000,103757.000,1.000
-0.063,5.789,-5.730,0.315,0.774,-12.541,-13.883,2.167,-0.016,0.967,-0.076,-1.770,1.221,0.610,100.000,103758.000,1.000
-1.272,4.751,-3.487,-0.476,1.849,-13.490,-11.718,3.441,-0.015,0.968,-0.077,-1.740,1.160,0.549,100.000,103759.000,1.000
-0.185,3.286,0.467,0.699,3.496,-11.195,-8.449,5.118,-0.015,0.966,-0.079,-1.740,1.221,0.580,100.000,103760.000,1.000
-0.901,-0.526,-1.576,-0.247,1.881,-11.166,-8.706,3.714,-0.017,0.967,-0.078,-1.801,1.251,0.671,100.000,103761.000,1.000
-2.915,-4.746,-6.473,-2.004,-1.683,-13.557,-10.574,1.442,-0.018,0.967,-0.074,-1.801,1.251,0.610,100.000,103762.000,1.000
-4.640,-7.223,-9.838,-3.084,-4.280,-17.004,-12.302,0.257,-0.016,0.967,-0.072,-1.801,1.190,0.549,100.000,103763.000,1.000
-3.963,-6.324,-8.894,-2.073,-4.325,-19.195,-12.990,0.197,-0.016,0.966,-0.073,-1.801,1.221,0.580,100.000,103764.000,1.000
-0.730,-2.782,-5.411,0.661,-2.362,-18.662,-11.861,1.471,-0.016,0.964,-0.073,-1.740,1.282,0.610,100.000,103765.000,1.000
1.445,-0.100,-3.723,2.379,-0.114,-17.006,-9.758,3.398,-0.017,0.964,-0.075,-1.770,1.160,0.702,100.000,103766.000,1.000
4.405,3.571,0.963,5.656,3.607,-12.806,-6.041,6.102,-0.017,0.966,-0.079,-1.801,1.251,0.671,100.000,103767.000,1.000
6.158,5.431,4.288,7.255,5.489,-10.905,-5.415,5.414,-0.018,0.964,-0.075,-1.831,1.190,0.702,100.000,103768.000,1.000
6.082,4.532,3.536,5.692,4.521,-12.557,-8.378,1.641,-0.018,0.965,-0.075,-1.831,1.343,0.702,100.000,103769.000,1.000
6.696,4.980,2.615,4.309,3.902,-13.185,-9.775,0.350,-0.017,0.965,-0.076,-1.831,1.282,0.702,100.000,103770.000,1.000
6.594,6.958,1.462,3.152,3.681,-13.020,-8.632,1.711,-0.014,0.967,-0.078,-1.770,1.312,0.824,100.000,103771.000,1.000
7.478,10.576,2.996,4.021,4.663,-11.777,-5.283,3.997,-0.015,0.967,-0.077,-1.831,1.312,0.824,100.000,103772.000,1.000
7.327,11.482,3.052,3.903,5.240,-12.432,-3.797,4.332,-0.018,0.967,-0.075,-1.953,1.404,0.824,100.000,103773.000,1.000
6.536,10.647,2.452,2.931,5.390,-12.653,-3.390,4.423,-0.017,0.966,-0.074,-1.862,1.343,0.763,100.000,103774.000,1.000
7.443,12.523,4.560,3.711,5.768,-8.910,-0.745,6.586,-0.017,0.966,-0.075,-1.770,1.373,0.702,100.000,103775.000,1.000
5.563,12.616,3.193,2.686,3.572,-7.209,0.380,6.493,-0.016,0.965,-0.078,-1.801,1.404,0.671,100.000,103776.000,1.000
1.262,8.866,-1.206,0.058,-0.324,-9.455,-1.813,3.193,-0.014,0.965,-0.075,-1.740,1.434,0.671,100.000,103777.000,1.000
-3.745,2.328,-7.141,-4.248,-5.416,-14.425,-6.475,-2.004,-0.014,0.966,-0.075,-1.678,1.495,0.763,100.000,103778.000,1.000
-6.754,-1.999,-9.716,-7.705,-9.824,-16.749,-8.725,-6.431,-0.012,0.966,-0.074,-1.648,1.648,0.793,100.000,103779.000,1.000
-6.782,-1.626,-7.991,-8.018,-11.237,-13.329,-6.766,-8.003,-0.011,0.964,-0.076,-1.678,1.770,1.007,100.000,103780.000,1.000
-6.922,-1.193,-8.561,-7.492,-10.931,-9.268,-5.344,-8.014,-0.011,0.962,-0.078,-1.648,1.923,1.068,100.000,103781.000,1.000
-5.602,-1.027,-8.985,-5.223,-9.180,-6.277,-4.298,-6.311,-0.012,0.961,-0.076,-1.617,1.923,1.160,100.000,103782.000,1.000
-5.610,-2.768,-10.783,-4.724,-8.738,-6.566,-3.529,-5.281,-0.014,0.962,-0.077,-1.526,1.984,1.160,100.000,103783.000,1.000
-7.505,-4.671,-12.807,-5.969,-9.147,-7.216,-2.517,-5.346,-0.012,0.965,-0.076,-1.404,2.045,1.160,100.000,103784.000,1.000
-9.559,-4.611,-13.378,-7.099,-9.509,-6.035,-3.136,-6.696,-0.011,0.970,-0.075,-1.312,2.014,1.160,100.000,103785.000,1.000
-15.516,-7.410,-17.964,-11.591,-13.162,-9.004,-8.943,-11.497,-0.012,0.972,-0.078,-1.434,2.106,1.160,100.000,103786.000,1.000
-22.185,-10.975,-22.690,-15.840,-16.883,-14.139,-13.224,-13.695,-0.013,0.969,-0.079,-1.495,2.075,0.977,100.000,103787.000,1.000
-25.833,-12.558,-25.572,-17.284,-17.340,-17.681,-11.736,-10.257,-0.014,0.967,-0.077,-1.556,2.106,1.007,100.000,103788.000,1.000
-24.416,-11.224,-24.233,-14.819,-14.504,-16.422,-6.693,-5.781,-0.016,0.969,-0.077,-1.465,2.136,1.007,100.000,103789.000,1.000
-20.748,-9.385,-20.536,-11.079,-11.718,-12.475,-3.561,-5.683,-0.019,0.969,-0.077,-1.526,2.258,0.916,100.000,103790.000,1.000
-22.584,-13.538,-24.125,-13.925,-14.206,-15.539,-7.838,-11.774,-0.021,0.971,-0.073,-1.648,2.228,0.793,100.000,103791.000,1.000
-25.362,-19.344,-29.695,-19.313,-18.056,-23.342,-13.774,-17.072,-0.023,0.972,-0.073,-1.678,2.167,0.549,100.000,103792.000,1.000
-23.917,-21.325,-30.973,-20.658,-18.332,-28.802,-15.564,-17.443,-0.023,0.970,-0.077,-1.862,2.075,0.336,100.000,103793.000,1.000
-20.522,-19.577,-27.748,-17.275,-15.624,-28.803,-14.174,-14.710,-0.024,0.973,-0.078,-1.953,1.953,0.183,100.000,103794.000,1.000
-20.272,-17.540,-24.591,-14.350,-13.923,-26.055,-13.478,-12.629,-0.023,0.975,-0.076,-2.014,1.770,0.031,100.000,103795.000,1.000
-24.119,-17.532,-24.777,-15.451,-14.351,-24.598,-14.202,-13.899,-0.021,0.972,-0.074,-2.075,1.587,-0.092,100.000,103796.000,1.000
-24.144,-15.347,-21.000,-14.591,-12.191,-21.148,-12.330,-15.859,-0.020,0.971,-0.073,-2.197,1.556,-0.183,100.000,103797.000,1.000
-22.525,-14.334,-17.912,-14.054,-9.918,-19.070,-11.948,-19.487,-0.019,0.968,-0.072,-2.197,1.465,-0.305,100.000,103798.000,1.000
-24.280,-16.731,-19.861,-16.959,-10.487,-20.492,-14.968,-24.642,-0.018,0.969,-0.074,-2.167,1.495,-0.275,100.000,103799.000,1.000
-27.016,-18.232,-22.060,-19.639,-11.624,-20.868,-16.139,-26.823,-0.016,0.969,-0.077,-2.106,1.495,-0.092,100.000,103800.000,1.000
-28.189,-18.110,-22.287,-20.424,-11.944,-18.694,-13.335,-24.549,-0.016,0.968,-0.077,-2.014,1.648,-0.092,100.000,103801.000,1.000
-23.962,-15.161,-17.112,-17.320,-9.418,-12.847,-7.043,-18.352,-0.015,0.965,-0.077,-2.045,1.617,0.183,100.000,103802.000,1.000
-18.605,-13.664,-13.136,-15.086,-8.072,-8.911,-3.496,-14.703,-0.014,0.964,-0.075,-2.014,1.556,0.397,100.000,103803.000,1.000
-14.732,-14.096,-11.513,-14.916,-10.383,-7.758,-3.265,-16.507,-0.016,0.964,-0.077,-1.953,1.648,0.641,100.000,103804.000,1.000
-9.037,-10.470,-6.384,-12.509,-12.104,-4.119,-0.946,-18.859,-0.016,0.966,-0.074,-1.892,1.709,0.824,100.000,103805.000,1.000
-4.033,-4.797,-1.464,-9.657,-12.051,0.597,2.567,-19.962,-0.019,0.965,-0.071,-1.770,1.678,0.977,100.000,103806.000,1.000
-1.282,-1.760,0.826,-7.764,-11.599,5.298,5.270,-20.426,-0.022,0.966,-0.073,-1.892,1.617,1.129,100.000,103807.000,1.000
-1.229,-3.626,-1.085,-8.087,-12.823,8.203,5.850,-21.722,-0.021,0.967,-0.075,-1.923,1.587,1.221,100.000,103808.000,1.000
1.382,-3.216,0.846,-5.449,-11.823,12.697,9.067,-20.533,-0.020,0.967,-0.074,-1.892,1.617,1.190,100.000,103809.000,1.000
8.859,2.793,9.573,1.775,-6.653,20.134,17.174,-15.361,-0.021,0.966,-0.070,-1.953,1.495,1.221,100.000,103810.000,1.000
12.399,4.123,11.608,3.801,-4.587,22.292,22.485,-12.680,-0.019,0.965,-0.072,-1.923,1.434,1.251,100.000,103811.000,1.000
11.573,-0.202,6.151,0.591,-7.282,19.561,23.029,-13.043,-0.020,0.964,-0.073,-1.770,1.404,1.251,100.000,103812.000,1.000
12.298,-3.180,0.723,-1.524,-10.792,16.783,21.459,-13.117,-0.018,0.961,-0.072,-1.740,1.312,1.190,100.000,103813.000,1.000
20.016,1.495,3.469,3.174,-9.435,19.073,22.264,-9.591,-0.016,0.961,-0.072,-1.709,1.312,1.221,100.000,103814.000,1.000
32.321,12.007,12.181,12.884,-2.417,26.357,26.818,-1.909,-0.018,0.960,-0.073,-1.678,1.434,1.099,100.000,103815.000,1.000
40.301,18.850,14.941,18.744,3.533,30.751,30.145,4.838,-0.015,0.962,-0.072,-1.617,1.312,1.068,100.000,103816.000,1.000
45.368,21.756,14.343,21.265,6.586,31.631,31.505,8.758,-0.015,0.960,-0.075,-1.526,1.373,1.068,100.000,103817.000,1.000
49.192,22.819,14.070,22.466,8.051,30.607,31.841,10.070,-0.014,0.961,-0.073,-1.434,1.526,1.129,100.000,103818.000,1.000
52.986,24.878,16.236,24.789,10.834,31.476,34.167,11.064,-0.012,0.962,-0.073,-1.282,1.587,1.160,100.000,103819.000,1.000
57.717,28.772,19.039,28.343,14.793,34.617,37.592,11.820,-0.014,0.963,-0.072,-1.251,1.617,1.129,100.000,103820.000,1.000
59.622,29.640,16.801,29.101,15.811,34.299,36.464,9.556,-0.011,0.960,-0.075,-1.190,1.678,1.038,100.000,103821.000,1.000
63.557,31.898,18.496,32.686,17.951,36.059,35.974,10.294,-0.013,0.961,-0.074,-1.160,1.740,0.946,100.000,103822.000,1.000
72.516,38.563,27.126,40.631,23.558,43.390,40.698,16.845,-0.012,0.962,-0.070,-1.099,1.801,0.977,100.000,103823.000,1.000
81.457,44.139,35.976,46.585,27.375,50.673,46.015,21.798,-0.012,0.963,-0.071,-1.068,1.923,0.885,100.000,103824.000,1.000
84.273,42.581,38.348,45.413,24.450,51.895,45.737,18.812,-0.013,0.964,-0.073,-0.977,2.045,0.916,100.000,103825.000,1.000
80.251,34.272,32.980,38.124,16.653,46.585,40.464,11.094,-0.013,0.964,-0.073,-0.854,2.136,0.946,100.000,103826.000,1.000
78.447,28.413,31.111,33.693,12.366,42.459,37.635,8.028,-0.012,0.965,-0.072,-0.916,2.167,0.916,100.000,103827.000,1.000
79.924,25.738,33.468,31.837,12.130,39.972,35.877,8.390,-0.014,0.967,-0.074,-0.916,2.289,0.885,100.000,103828.000,1.000
81.594,24.950,36.972,30.527,13.815,39.943,33.853,8.290,-0.014,0.968,-0.077,-0.977,2.350,0.916,100.000,103829.000,1.000
83.177,28.064,41.574,31.491,17.774,45.056,35.480,9.805,-0.015,0.970,-0.078,-0.977,2.380,0.885,100.000,103830.000,1.000
82.110,30.328,43.568,31.769,20.993,48.127,38.557,11.962,-0.015,0.973,-0.079,-1.099,2.502,0.885,100.000,103831.000,1.000
80.835,29.630,45.806,31.672,22.823,44.943,39.469,12.619,-0.015,0.972,-0.077,-1.129,2.502,0.916,100.000,103832.000,1.000
80.011,27.007,46.998,30.605,23.536,37.135,35.700,9.546,-0.015,0.972,-0.074,-1.190,2.533,0.885,100.000,103833.000,1.000
80.044,26.688,48.226,30.119,25.174,32.530,31.082,5.927,-0.015,0.974,-0.072,-1.251,2.563,0.793,100.000,103834.000,1.000
79.454,28.245,50.351,30.989,27.512,33.290,28.637,5.434,-0.017,0.973,-0.075,-1.282,2.563,0.854,100.000,103835.000,1.000
73.817,25.257,48.454,29.783,26.695,31.640,24.858,4.789,-0.017,0.971,-0.075,-1.434,2.533,0.885,100.000,103836.000,1.000
69.917,23.727,49.003,31.206,26.179,30.461,23.137,5.128,-0.017,0.973,-0.076,-1.587,2.441,1.099,100.000,103837.000,1.000
70.002,27.522,52.231,35.063,27.356,32.609,25.866,7.701,-0.018,0.972,-0.074,-1.617,2.380,1.099,100.000,103838.000,1.000
67.875,29.860,52.043,35.564,26.923,34.240,29.838,10.184,-0.017,0.972,-0.073,-1.526,2.319,0.977,100.000,103839.000,1.000
61.784,25.998,46.842,30.996,23.999,31.639,31.058,10.739,-0.017,0.971,-0.073,-1.587,2.289,0.916,100.000,103840.000,1.000
56.947,20.757,41.316,25.427,21.433,26.206,29.030,9.619,-0.018,0.971,-0.074,-1.709,2.258,0.916,100.000,103841.000,1.000
60.826,23.902,45.726,27.572,24.051,27.107,29.663,11.222,-0.018,0.970,-0.074,-1.740,2.258,0.977,100.000,103842.000,1.000
65.322,29.339,51.027,32.667,27.884,31.932,31.835,14.719,-0.018,0.972,-0.074,-1.770,2.197,0.854,100.000,103843.000,1.000
62.506,29.496,47.717,33.344,29.046,33.847,32.890,18.141,-0.018,0.971,-0.073,-1.740,2.197,0.854,100.000,103844.000,1.000
58.148,29.395,41.631,31.638,29.689,33.407,34.222,21.661,-0.018,0.968,-0.070,-1.862,2.167,0.885,100.000,103845.000,1.000
57.338,32.781,38.704,30.778,30.377,32.726,35.560,22.569,-0.018,0.968,-0.070,-1.923,2.167,0.824,100.000,103846.000,1.000
60.183,38.234,42.277,33.057,31.242,34.761,37.482,20.710,-0.019,0.969,-0.069,-1.953,2.167,0.854,100.000,103847.000,1.000
57.788,37.217,41.919,31.197,28.257,33.212,35.327,14.634,-0.016,0.964,-0.071,-1.892,2.106,0.854,100.000,103848.000,1.000
48.894,30.372,33.711,23.537,21.836,26.081,28.265,5.992,-0.017,0.963,-0.070,-1.984,2.045,0.854,100.000,103849.000,1.000
43.092,27.355,27.030,18.892,18.778,21.998,23.377,2.133,-0.016,0.962,-0.074,-1.892,2.045,0.824,100.000,103850.000,1.000
43.228,28.506,26.811,20.261,20.341,24.705,23.637,4.802,-0.017,0.963,-0.073,-1.617,2.014,0.824,100.000,103851.000,1.000
47.942,31.217,35.143,25.979,23.598,32.515,27.277,9.469,-0.014,0.966,-0.073,-1.617,1.953,0.793,100.000,103852.000,1.000
49.749,31.081,41.433,28.290,23.387,35.999,27.897,9.288,-0.014,0.965,-0.073,-1.465,2.014,0.824,100.000,103853.000,1.000
45.005,27.602,39.251,25.583,20.326,31.913,24.753,5.352,-0.012,0.966,-0.072,-1.465,1.984,0.946,100.000,103854.000,1.000
38.019,23.487,34.033,22.964,18.372,26.171,21.718,3.091,-0.013,0.964,-0.074,-1.434,1.984,1.038,100.000,103855.000,1.000
31.584,18.644,29.664,20.591,17.511,21.791,19.531,2.536,-0.015,0.962,-0.075,-1.373,2.197,1.068,100.000,103856.000,1.000
28.719,17.204,29.991,18.884,18.840,20.686,19.696,3.417,-0.015,0.963,-0.072,-1.190,2.319,0.946,100.000,103857.000,1.000
26.263,18.485,29.495,15.306,19.865,18.275,18.824,2.949,-0.019,0.964,-0.072,-1.221,2.197,0.916,100.000,103858.000,1.000
23.514,20.222,28.681,12.280,19.188,15.118,16.428,1.101,-0.019,0.965,-0.075,-1.129,2.136,0.763,100.000,103859.000,1.000
22.135,21.720,31.516,13.101,18.614,15.944,15.823,0.629,-0.019,0.960,-0.077,-1.068,2.075,0.702,100.000,103860.000,1.000
16.880,18.736,30.390,11.577,16.488,15.060,13.981,-1.265,-0.019,0.961,-0.075,-1.068,2.075,0.488,100.000,103861.000,1.000
8.110,12.181,23.850,6.101,12.465,8.483,9.103,-5.124,-0.020,0.962,-0.077,-0.916,1.892,0.488,100.000,103862.000,1.000
-0.979,3.703,13.776,-1.169,6.783,-2.118,2.133,-8.972,-0.021,0.963,-0.077,-0.854,1.892,0.488,100.000,103863.000,1.000
-5.787,-2.772,6.893,-5.116,2.447,-8.479,-2.422,-10.933,-0.016,0.964,-0.077,-0.885,1.770,0.427,100.000,103864.000,1.000
-3.843,-3.471,7.405,-2.935,2.261,-5.908,-1.737,-10.599,-0.016,0.965,-0.077,-0.793,1.801,0.366,100.000,103865.000,1.000
0.679,-1.033,9.901,1.919,5.104,-0.287,1.834,-8.188,-0.016,0.966,-0.076,-0.732,1.770,0.488,100.000,103866.000,1.000
5.375,2.016,12.476,7.121,9.820,3.989,5.350,-3.505,-0.014,0.969,-0.077,-0.793,1.801,0.549,100.000,103867.000,1.000
4.524,-0.471,8.720,5.191,10.446,0.822,1.361,-3.571,-0.014,0.968,-0.073,-0.793,1.892,0.549,100.000,103868.000,1.000
-1.130,-6.472,1.863,-2.843,6.298,-7.383,-8.352,-9.552,-0.014,0.969,-0.074,-0.977,1.740,0.610,100.000,103869.000,1.000
-4.470,-7.165,1.263,-7.659,3.528,-11.557,-13.881,-13.356,-0.014,0.968,-0.072,-0.946,1.831,0.732,100.000,103870.000,1.000
-6.395,-4.785,2.527,-9.518,2.444,-12.730,-14.930,-13.715,-0.014,0.968,-0.073,-1.038,1.892,0.763,100.000,103871.000,1.000
-8.262,-4.057,2.301,-10.447,1.725,-13.948,-15.349,-13.025,-0.016,0.970,-0.075,-1.190,1.862,0.854,100.000,103872.000,1.000
-11.670,-6.098,-0.420,-11.875,0.568,-16.963,-18.151,-13.130,-0.014,0.970,-0.075,-1.129,1.953,0.824,100.000,103873.000,1.000
-13.840,-5.233,0.541,-10.515,1.155,-16.912,-20.058,-12.144,-0.016,0.968,-0.074,-1.251,1.892,0.916,100.000,103874.000,1.000
-13.226,-0.138,6.714,-5.953,3.802,-11.911,-18.493,-8.971,-0.016,0.970,-0.074,-1.251,1.892,0.916,100.000,103875.000,1.000
-15.938,1.333,8.132,-5.037,4.630,-10.359,-18.087,-7.160,-0.016,0.970,-0.073,-1.190,1.862,1.007,100.000,103876.000,1.000
-20.725,-0.227,6.134,-6.163,4.831,-12.876,-19.031,-5.718,-0.017,0.971,-0.077,-1.221,1.801,1.007,100.000,103877.000,1.000
-25.645,-3.299,2.784,-7.704,4.273,-17.190,-20.353,-3.998,-0.017,0.971,-0.073,-1.221,1.831,0.946,100.000,103878.000,1.000
-28.668,-6.261,1.362,-8.029,3.006,-19.734,-20.229,-2.500,-0.016,0.971,-0.074,-1.404,1.770,0.916,100.000,103879.000,1.000
-28.095,-6.489,3.931,-5.907,2.377,-18.836,-19.033,-2.377,-0.016,0.967,-0.075,-1.343,1.831,0.916,100.000,103880.000,1.000
-28.742,-7.166,3.881,-6.076,0.828,-19.578,-20.995,-6.445,-0.016,0.968,-0.073,-1.343,1.862,0.824,100.000,103881.000,1.000
-31.375,-9.397,0.919,-8.431,-0.656,-21.727,-23.988,-11.734,-0.016,0.968,-0.075,-1.404,1.740,0.793,100.000,103882.000,1.000
-37.026,-15.417,-6.684,-13.261,-3.297,-26.211,-27.303,-15.877,-0.016,0.967,-0.073,-1.404,1.862,0.763,100.000,103883.000,1.000
-43.460,-21.306,-14.405,-17.742,-6.755,-30.974,-29.856,-17.356,-0.017,0.965,-0.077,-1.404,1.831,0.793,100.000,103884.000,1.000
-46.227,-20.084,-15.751,-18.219,-8.913,-31.226,-29.352,-16.691,-0.016,0.965,-0.076,-1.373,1.862,0.793,100.000,103885.000,1.000
-47.855,-16.878,-16.490,-18.814,-12.066,-30.468,-28.998,-19.517,-0.016,0.966,-0.077,-1.495,1.801,0.793,100.000,103886.000,1.000
-48.754,-17.219,-19.054,-20.611,-15.536,-31.399,-29.887,-24.450,-0.015,0.966,-0.073,-1.373,1.831,0.702,100.000,103887.000,1.000
-48.633,-20.187,-23.361,-23.159,-16.669,-34.373,-31.279,-25.792,-0.016,0.962,-0.071,-1.343,1.801,0.671,100.000,103888.000,1.000
-43.189,-16.702,-20.763,-21.068,-11.301,-32.612,-28.621,-19.874,-0.017,0.964,-0.074,-1.251,1.770,0.549,100.000,103889.000,1.000
-32.655,-5.392,-8.649,-12.660,-1.376,-23.591,-21.460,-10.206,-0.017,0.964,-0.074,-1.160,1.801,0.488,100.000,103890.000,1.000
-28.759,-0.830,-3.001,-8.356,2.253,-18.974,-19.180,-6.484,-0.016,0.965,-0.074,-1.129,1.740,0.580,100.000,103891.000,1.000
-32.808,-7.118,-8.475,-10.742,-2.397,-22.604,-24.554,-10.126,-0.017,0.965,-0.079,-1.099,1.740,0.549,100.000,103892.000,1.000
-38.541,-16.115,-17.989,-14.693,-8.071,-29.218,-32.709,-15.717,-0.017,0.965,-0.079,-1.099,1.709,0.580,100.000,103893.000,1.000
-40.026,-17.744,-19.690,-13.009,-6.429,-29.839,-34.939,-15.387,-0.018,0.965,-0.077,-1.129,1.709,0.519,100.000,103894.000,1.000
-37.164,-11.649,-12.776,-6.903,0.765,-22.617,-29.572,-8.164,-0.016,0.964,-0.077,-1.007,1.678,0.488,100.000,103895.000,1.000
-37.074,-8.403,-10.821,-6.836,2.328,-17.516,-26.134,-4.304,-0.017,0.963,-0.075,-0.977,1.801,0.488,100.000,103896.000,1.000
-39.739,-10.001,-14.675,-12.183,-3.284,-18.037,-27.980,-7.646,-0.019,0.965,-0.073,-1.007,1.709,0.488,100.000,103897.000,1.000
-44.297,-14.359,-21.040,-18.270,-10.679,-23.376,-32.401,-13.194,-0.020,0.965,-0.071,-0.885,1.740,0.519,100.000,103898.000,1.000
-48.727,-17.996,-24.670,-20.962,-14.600,-27.827,-33.952,-14.056,-0.018,0.966,-0.071,-0.793,1.831,0.519,100.000,103899.000,1.000
-51.412,-19.093,-23.628,-20.233,-15.301,-26.775,-31.631,-10.426,-0.015,0.967,-0.074,-0.793,1.740,0.458,100.000,103900.000,1.000
-56.076,-21.771,-25.027,-22.593,-17.909,-25.334,-31.105,-9.822,-0.016,0.968,-0.076,-0.824,1.678,0.549,100.000,103901.000,1.000
-59.844,-24.284,-27.182,-26.632,-20.696,-24.949,-31.771,-12.581,-0.015,0.970,-0.076,-0.824,1.678,0.549,100.000,103902.000,1.000
-61.221,-26.089,-29.682,-29.463,-21.525,-26.775,-32.542,-15.646,-0.016,0.969,-0.075,-0.824,1.709,0.610,100.000,103903.000,1.000
-59.741,-26.523,-29.870,-27.568,-19.153,-28.668,-31.654,-15.544,-0.018,0.968,-0.077,-0.854,1.709,0.580,100.000,103904.000,1.000
-54.111,-22.951,-24.169,-19.343,-12.673,-26.036,-26.494,-10.278,-0.018,0.968,-0.076,-0.763,1.709,0.641,100.000,103905.000,1.000
-49.142,-18.404,-18.119,-11.391,-6.035,-21.777,-20.521,-4.487,-0.017,0.968,-0.076,-0.793,1.740,0.671,100.000,103906.000,1.000
-47.215,-14.745,-13.841,-7.681,-2.180,-18.868,-17.273,-2.078,-0.018,0.970,-0.073,-0.854,1.770,0.671,100.000,103907.000,1.000
-49.341,-14.539,-14.799,-10.065,-3.361,-20.535,-19.152,-5.338,-0.016,0.970,-0.072,-1.068,1.740,0.702,100.000,103908.000,1.000
-50.774,-15.039,-15.951,-12.567,-6.557,-22.599,-22.074,-11.363,-0.015,0.969,-0.074,-1.099,1.801,0.763,100.000,103909.000,1.000
-47.618,-11.382,-11.025,-9.533,-6.896,-19.849,-21.930,-15.049,-0.016,0.969,-0.075,-1.038,1.709,0.732,100.000,103910.000,1.000
-45.577,-6.929,-7.502,-6.663,-5.398,-17.377,-21.935,-16.676,-0.016,0.970,-0.072,-1.099,1.648,0.732,100.000,103911.000,1.000
-44.775,-3.655,-8.173,-6.388,-3.156,-16.934,-22.630,-16.646,-0.018,0.969,-0.076,-1.099,1.617,0.824,100.000,103912.000,1.000
-44.897,-4.367,-14.376,-10.275,-4.051,-19.948,-26.124,-18.385,-0.019,0.969,-0.077,-1.251,1.709,0.824,100.000,103913.000,1.000
-46.622,-8.228,-21.545,-16.648,-9.080,-25.287,-32.009,-23.326,-0.017,0.969,-0.076,-1.312,1.648,0.946,100.000,103914.000,1.000
-50.282,-12.645,-25.523,-22.151,-14.933,-29.996,-36.388,-28.184,-0.017,0.969,-0.076,-1.190,1.709,0.916,100.000,103915.000,1.000
-57.627,-20.178,-31.506,-27.938,-20.716,-35.220,-39.196,-31.043,-0.016,0.967,-0.073,-1.282,1.648,0.854,100.000,103916.000,1.000
-62.654,-26.755,-36.021,-30.433,-23.400,-37.085,-38.423,-28.410,-0.018,0.967,-0.075,-1.282,1.709,0.854,100.000,103917.000,1.000
-64.269,-30.169,-38.619,-30.589,-23.742,-36.421,-35.453,-22.665,-0.018,0.967,-0.073,-1.282,1.648,0.916,100.000,103918.000,1.000
-65.581,-31.766,-39.685,-30.823,-24.214,-35.879,-32.217,-18.865,-0.016,0.967,-0.073,-1.312,1.678,0.977,100.000,103919.000,1.000
-66.626,-31.331,-37.444,-30.118,-24.090,-34.012,-28.180,-16.351,-0.016,0.967,-0.073,-1.282,1.678,1.038,100.000,103920.000,1.000
-68.281,-29.994,-35.422,-29.514,-23.040,-31.042,-24.771,-13.639,-0.016,0.967,-0.073,-1.282,1.709,1.068,100.000,103921.000,1.000
-68.561,-27.255,-33.345,-27.978,-20.931,-26.363,-21.860,-10.606,-0.015,0.965,-0.073,-1.312,1.709,1.038,100.000,103922.000,1.000
-70.291,-28.045,-35.067,-28.869,-21.593,-24.865,-22.207,-10.777,-0.014,0.965,-0.073,-1.282,1.740,1.038,100.000,103923.000,1.000
-73.068,-32.061,-37.048,-31.102,-23.704,-25.678,-24.427,-12.685,-0.013,0.966,-0.074,-1.251,1.709,1.068,100.000,103924.000,1.000
-71.593,-31.230,-32.418,-29.463,-21.517,-22.015,-23.177,-11.448,-0.013,0.966,-0.073,-1.282,1.709,1.129,100.000,103925.000,1.000
-66.979,-24.530,-25.601,-25.477,-15.340,-15.108,-18.357,-8.234,-0.014,0.966,-0.074,-1.373,1.831,1.038,100.000,103926.000,1.000
-60.063,-15.468,-17.749,-19.741,-7.117,-7.321,-11.285,-4.269,-0.016,0.966,-0.073,-1.282,1.770,0.977,100.000,103927.000,1.000
-55.544,-12.134,-14.015,-16.327,-2.260,-4.593,-7.761,-2.463,-0.017,0.964,-0.076,-1.251,1.923,1.068,100.000,103928.000,1.000
-54.793,-14.844,-15.114,-15.192,-2.481,-8.062,-9.496,-3.517,-0.014,0.965,-0.073,-1.251,1.984,1.038,100.000,103929.000,1.000
-54.313,-17.755,-16.846,-12.930,-4.731,-13.685,-13.861,-6.278,-0.014,0.966,-0.073,-1.282,2.014,0.977,100.000,103930.000,1.000
-55.326,-21.209,-20.348,-12.193,-8.705,-21.088,-20.971,-12.176,-0.013,0.965,-0.074,-1.312,2.014,1.129,100.000,103931.000,1.000
-54.887,-20.938,-19.496,-10.588,-10.578,-24.938,-25.596,-16.876,-0.013,0.965,-0.075,-1.251,2.014,1.129,100.000,103932.000,1.000
-52.100,-15.849,-15.217,-8.630,-9.638,-25.039,-26.318,-18.829,-0.013,0.965,-0.073,-1.129,2.045,1.007,100.000,103933.000,1.000
-47.867,-10.861,-12.504,-9.586,-9.374,-25.239,-26.317,-20.832,-0.015,0.964,-0.074,-1.160,2.045,1.038,100.000,103934.000,1.000
-43.740,-9.895,-12.923,-13.801,-11.685,-26.949,-26.790,-22.559,-0.014,0.965,-0.075,-1.038,1.984,0.977,100.000,103935.000,1.000
-43.792,-12.596,-16.515,-19.609,-15.588,-30.102,-27.272,-22.624,-0.013,0.967,-0.075,-0.885,2.014,0.916,100.000,103936.000,1.000
-44.808,-12.368,-16.415,-21.007,-16.545,-29.578,-24.599,-19.064,-0.016,0.965,-0.074,-0.854,2.045,0.916,100.000,103937.000,1.000
-48.077,-13.614,-18.520,-21.983,-17.342,-29.402,-23.025,-15.936,-0.015,0.967,-0.073,-0.885,2.106,0.824,100.000,103938.000,1.000
-55.049,-20.539,-26.665,-25.947,-20.642,-32.995,-25.151,-15.903,-0.014,0.966,-0.072,-0.916,2.075,0.885,100.000,103939.000,1.000
-60.175,-25.414,-32.466,-27.742,-22.641,-34.509,-25.924,-15.065,-0.015,0.967,-0.074,-0.824,2.167,0.916,100.000,103940.000,1.000
-62.687,-25.730,-34.221,-27.306,-22.918,-32.681,-24.030,-12.323,-0.015,0.967,-0.072,-0.732,2.075,0.824,100.000,103941.000,1.000
-63.742,-24.942,-32.843,-25.922,-22.147,-28.462,-20.382,-8.146,-0.016,0.969,-0.074,-0.702,1.953,0.824,100.000,103942.000,1.000
-67.441,-28.996,-34.742,-26.844,-22.191,-26.455,-18.885,-5.668,-0.016,0.969,-0.071,-0.732,2.045,0.763,100.000,103943.000,1.000
-72.937,-36.102,-39.484,-29.141,-22.995,-27.362,-20.173,-5.985,-0.015,0.967,-0.074,-0.793,2.014,0.702,100.000,103944.000,1.000
-75.361,-39.483,-41.610,-30.171,-23.472,-27.688,-21.709,-6.868,-0.017,0.969,-0.076,-0.732,1.984,0.610,100.000,103945.000,1.000
-75.102,-38.120,-41.663,-31.454,-23.483,-26.562,-22.348,-7.345,-0.017,0.969,-0.075,-0.824,2.014,0.641,100.000,103946.000,1.000
-68.837,-29.848,-34.729,-28.227,-17.680,-18.922,-16.878,-3.254,-0.015,0.967,-0.075,-0.885,2.014,0.641,100.000,103947.000,1.000
-58.409,-18.875,-25.210,-20.915,-6.617,-7.495,-7.037,4.804,-0.016,0.968,-0.076,-0.763,1.892,0.641,100.000,103948.000,1.000
-50.700,-11.942,-20.979,-15.458,2.007,0.060,-0.372,10.987,-0.016,0.969,-0.075,-0.885,1.953,0.549,100.000,103949.000,1.000
-48.518,-10.273,-22.619,-14.578,3.784,1.578,-0.123,12.468,-0.018,0.969,-0.073,-0.885,1.892,0.549,100.000,103950.000,1.000
-50.301,-12.440,-27.115,-16.759,1.073,-0.989,-4.113,11.048,-0.017,0.969,-0.073,-0.946,1.862,0.549,100.000,103951.000,1.000
-49.834,-13.814,-26.466,-15.980,-0.379,-2.224,-6.991,10.941,-0.020,0.969,-0.072,-0.977,1.801,0.458,100.000,103952.000,1.000
-49.145,-17.030,-26.150,-15.704,-2.904,-5.193,-10.736,9.593,-0.017,0.968,-0.073,-1.068,1.831,0.488,100.000,103953.000,1.000
-48.624,-20.758,-28.345,-16.472,-5.797,-9.143,-13.623,8.258,-0.018,0.968,-0.075,-0.977,1.770,0.427,100.000,103954.000,1.000
-44.292,-18.046,-25.578,-12.160,-3.179,-7.747,-9.694,12.869,-0.018,0.967,-0.075,-0.977,1.648,0.427,100.000,103955.000,1.000
-42.297,-14.696,-22.289,-7.461,-0.458,-6.818,-5.117,16.920,-0.018,0.967,-0.073,-1.038,1.648,0.397,100.000,103956.000,1.000
-46.677,-17.539,-23.873,-8.179,-5.250,-12.486,-7.888,12.376,-0.016,0.968,-0.075,-1.007,1.648,0.549,100.000,103957.000,1.000
-55.212,-25.573,-32.259,-14.840,-15.838,-23.586,-17.781,1.983,-0.017,0.967,-0.074,-1.038,1.617,0.427,100.000,103958.000,1.000
-59.718,-30.183,-38.621,-19.789,-22.072,-30.904,-25.341,-4.253,-0.017,0.966,-0.073,-1.129,1.587,0.366,100.000,103959.000,1.000
-56.133,-27.971,-36.417,-18.430,-20.386,-30.585,-25.522,-3.228,-0.017,0.967,-0.071,-1.068,1.465,0.458,100.000,103960.000,1.000
-52.585,-27.343,-34.125,-17.253,-18.302,-30.598,-24.503,-1.933,-0.018,0.968,-0.074,-1.160,1.373,0.458,100.000,103961.000,1.000
-51.779,-29.262,-33.211,-17.219,-18.345,-31.580,-24.341,-2.145,-0.016,0.965,-0.074,-1.099,1.434,0.580,100.000,103962.000,1.000
-53.203,-31.246,-34.532,-19.083,-21.077,-33.148,-25.467,-3.688,-0.016,0.964,-0.074,-1.007,1.465,0.519,100.000,103963.000,1.000
-55.109,-33.158,-36.978,-22.789,-26.449,-35.817,-27.120,-6.847,-0.017,0.966,-0.076,-1.099,1.465,0.641,100.000,103964.000,1.000
-55.280,-36.418,-37.378,-25.129,-31.560,-37.899,-27.287,-10.191,-0.017,0.966,-0.078,-1.099,1.343,0.580,100.000,103965.000,1.000
-55.706,-41.525,-38.239,-26.718,-34.987,-39.339,-27.063,-12.937,-0.017,0.965,-0.074,-1.068,1.343,0.671,100.000,103966.000,1.000
-54.608,-41.113,-37.326,-26.723,-35.284,-36.983,-24.771,-11.769,-0.018,0.965,-0.073,-0.946,1.343,0.580,100.000,103967.000,1.000
-52.686,-35.383,-36.874,-27.190,-34.232,-33.280,-20.943,-7.625,-0.018,0.966,-0.074,-0.854,1.251,0.702,100.000,103968.000,1.000
-49.265,-29.688,-35.707,-27.277,-31.993,-30.126,-16.971,-4.300,-0.017,0.966,-0.077,-0.916,1.312,0.610,100.000,103969.000,1.000
-42.798,-26.503,-31.715,-25.312,-28.707,-26.845,-15.045,-4.063,-0.016,0.966,-0.075,-0.885,1.282,0.732,100.000,103970.000,1.000
-37.572,-26.843,-30.610,-24.347,-27.103,-25.476,-17.047,-6.903,-0.015,0.965,-0.077,-0.763,1.312,0.641,100.000,103971.000,1.000
-32.835,-23.788,-28.924,-21.346,-23.529,-21.174,-16.339,-6.513,-0.015,0.967,-0.074,-0.702,1.343,0.732,100.000,103972.000,1.000
-28.676,-15.997,-25.827,-16.805,-16.719,-13.524,-11.624,-2.298,-0.016,0.966,-0.074,-0.793,1.404,0.671,100.000,103973.000,1.000
-23.791,-6.866,-20.428,-11.734,-8.482,-5.292,-6.726,1.501,-0.015,0.969,-0.074,-0.763,1.465,0.702,100.000,103974.000,1.000
-16.688,1.255,-11.192,-4.867,0.282,2.267,-3.042,4.214,-0.017,0.968,-0.076,-0.824,1.404,0.732,100.000,103975.000,1.000
-13.637,3.652,-5.320,-0.531,6.201,4.341,-2.779,4.921,-0.018,0.968,-0.076,-0.885,1.465,0.702,100.000,103976.000,1.000
-15.663,2.494,-3.696,0.251,8.223,1.766,-5.759,2.489,-0.017,0.969,-0.075,-0.885,1.404,0.793,100.000,103977.000,1.000
-22.511,-1.244,-7.777,-3.626,5.013,-4.731,-13.252,-5.408,-0.015,0.969,-0.071,-1.068,1.434,0.763,100.000,103978.000,1.000
-31.025,-6.285,-14.203,-8.668,-0.330,-12.071,-21.592,-13.065,-0.015,0.969,-0.075,-0.977,1.434,0.702,100.000,103979.000,1.000
-34.330,-6.759,-15.721,-8.292,-0.684,-14.721,-23.270,-10.511,-0.015,0.968,-0.073,-1.007,1.526,0.671,100.000,103980.000,1.000
-33.122,-1.903,-13.953,-4.079,4.523,-13.337,-18.333,-0.110,-0.016,0.967,-0.078,-0.977,1.556,0.732,100.000,103981.000,1.000
-30.986,3.967,-10.878,0.754,10.825,-9.300,-11.375,9.599,-0.017,0.965,-0.076,-0.977,1.556,0.702,100.000,103982.000,1.000
-34.372,0.859,-14.134,0.309,10.559,-9.014,-10.110,12.375,-0.016,0.965,-0.074,-1.007,1.648,0.671,100.000,103983.000,1.000
-42.123,-9.225,-21.773,-4.304,4.618,-12.822,-13.162,10.999,-0.016,0.967,-0.073,-1.038,1.587,0.732,100.000,103984.000,1.000
-47.612,-13.839,-24.609,-7.524,0.902,-13.518,-12.973,10.793,-0.015,0.968,-0.072,-1.129,1.709,0.763,100.000,103985.000,1.000
-52.542,-13.774,-25.863,-11.486,-0.365,-11.243,-10.520,9.726,-0.015,0.968,-0.072,-1.160,1.709,0.702,100.000,103986.000,1.000
-55.398,-13.725,-26.405,-14.313,-0.753,-6.969,-6.820,8.846,-0.014,0.969,-0.075,-1.160,1.678,0.671,100.000,103987.000,1.000
-53.100,-13.269,-25.719,-12.914,1.128,-2.574,-0.549,12.600,-0.016,0.968,-0.072,-1.312,1.862,0.580,100.000,103988.000,1.000
-45.055,-8.118,-19.640,-5.414,9.274,3.374,10.394,23.249,-0.016,0.968,-0.072,-1.282,1.892,0.641,100.000,103989.000,1.000
-36.813,-2.370,-9.608,3.590,19.489,9.694,20.503,33.619,-0.015,0.967,-0.074,-1.373,1.831,0.610,100.000,103990.000,1.000
-36.105,-6.320,-7.313,4.627,20.168,8.321,19.758,32.410,-0.015,0.968,-0.077,-1.343,1.831,0.732,100.000,103991.000,1.000
-36.176,-12.785,-9.123,2.479,14.397,3.414,14.192,24.994,-0.016,0.967,-0.072,-1.434,1.831,0.671,100.000,103992.000,1.000
-33.123,-12.757,-9.289,2.401,11.381,0.907,12.683,20.931,-0.016,0.968,-0.073,-1.434,1.831,0.671,100.000,103993.000,1.000
-31.385,-8.694,-7.411,2.672,11.764,0.237,13.721,18.876,-0.017,0.967,-0.071,-1.495,1.953,0.763,100.000,103994.000,1.000
-31.307,-5.227,-5.298,1.894,11.619,-0.260,12.074,14.506,-0.016,0.967,-0.074,-1.495,1.923,0.702,100.000,103995.000,1.000
-30.248,-3.235,-5.344,0.645,10.269,-0.646,7.648,8.557,-0.017,0.965,-0.074,-1.495,1.984,0.793,100.000,103996.000,1.000
-25.547,1.275,-1.864,2.841,11.188,3.371,6.899,5.734,-0.018,0.964,-0.073,-1.526,1.953,0.732,100.000,103997.000,1.000
-24.238,3.554,0.220,3.353,10.616,6.375,7.201,2.784,-0.017,0.964,-0.073,-1.526,1.923,0.671,100.000,103998.000,1.000
-29.686,-0.476,-4.123,-1.786,5.307,3.068,3.592,-4.124,-0.017,0.965,-0.074,-1.556,1.862,0.824,100.000,103999.000,1.000
-36.773,-7.918,-12.184,-10.429,-2.986,-3.896,-3.168,-12.610,-0.018,0.966,-0.074,-1.434,1.923,0.885,100.000,104000.000,1.000
-43.434,-17.300,-22.950,-22.023,-13.058,-12.256,-10.795,-20.002,-0.018,0.967,-0.074,-1.312,1.953,0.916,100.000,104001.000,1.000
-45.015,-22.636,-28.482,-29.629,-19.327,-15.480,-12.974,-21.439,-0.019,0.968,-0.073,-1.404,1.831,0.854,100.000,104002.000,1.000
