EEG 1,EEG 2,EEG 3,EEG 4,EEG 5,EEG 6,EEG 7,EEG 8,Accelerometer X,Accelerometer Y,Accelerometer Z,Gyroscope X,Gyroscope Y,Gyroscope Z,Battery Level,Counter,Validation Indicator
-3.843,-0.920,-6.290,-0.992,7.262,-15.085,11.754,0.212,0.031,0.991,0.058,-0.916,-0.427,-0.427,100.000,148049.000,1.000
-5.774,-3.661,-8.085,-2.906,6.209,-16.771,9.366,-2.213,0.031,0.990,0.061,-0.885,-0.397,-0.427,100.000,148050.000,1.000
-6.711,-5.369,-8.996,-3.886,5.875,-18.069,7.156,-3.736,0.030,0.989,0.058,-0.885,-0.488,-0.458,100.000,148051.000,1.000
-5.995,-5.487,-8.473,-3.294,6.682,-18.238,5.735,-3.884,0.031,0.988,0.057,-0.732,-0.580,-0.458,100.000,148052.000,1.000
-4.059,-4.457,-6.798,-1.486,8.117,-17.432,4.886,-3.156,0.030,0.991,0.060,-0.702,-0.641,-0.519,100.000,148053.000,1.000
-2.135,-3.375,-5.100,0.452,8.889,-16.332,4.000,-2.460,0.031,0.992,0.058,-0.854,-0.732,-0.458,100.000,148054.000,1.000
-1.206,-2.906,-4.245,1.610,8.333,-15.431,2.754,-2.250,0.032,0.993,0.059,-0.824,-0.610,-0.549,100.000,148055.000,1.000
-1.501,-3.042,-4.446,1.882,6.635,-14.650,1.360,-2.363,0.031,0.995,0.061,-0.885,-0.580,-0.610,100.000,148056.000,1.000
-2.259,-3.053,-4.869,2.002,5.032,-13.345,0.557,-2.230,0.032,0.997,0.062,-0.854,-0.580,-0.641,100.000,148057.000,1.000
-2.553,-2.354,-4.525,2.666,4.770,-11.113,0.791,-1.712,0.034,0.996,0.062,-0.977,-0.610,-0.580,100.000,148058.000,1.000
-2.157,-1.215,-3.423,3.762,5.852,-8.397,1.531,-1.499,0.034,0.994,0.063,-1.099,-0.702,-0.488,100.000,148059.000,1.000
-1.374,-0.231,-2.120,4.619,7.464,-6.108,1.754,-2.342,0.034,0.995,0.059,-1.190,-0.732,-0.519,100.000,148060.000,1.000
-0.758,0.080,-1.397,4.652,8.327,-4.986,0.782,-4.285,0.034,0.997,0.063,-1.099,-0.763,-0.519,100.000,148061.000,1.000
-0.544,-0.206,-1.446,3.895,7.916,-5.067,-1.043,-6.301,0.033,0.997,0.059,-1.099,-0.732,-0.610,100.000,148062.000,1.000
-0.622,-0.624,-1.831,2.846,6.656,-5.765,-2.757,-7.139,0.032,0.997,0.060,-1.160,-0.610,-0.610,100.000,148063.000,1.000
-0.769,-0.724,-2.091,2.051,5.226,-6.240,-3.572,-6.431,0.034,0.996,0.061,-1.099,-0.519,-0.458,100.000,148064.000,1.000
-0.690,-0.219,-1.844,1.848,4.407,-5.839,-3.247,-4.833,0.034,0.994,0.060,-1.099,-0.397,-0.458,100.000,148065.000,1.000
-0.401,0.454,-1.377,2.128,4.299,-4.544,-2.241,-3.613,0.034,0.995,0.059,-1.099,-0.488,-0.336,100.000,148066.000,1.000
0.026,0.654,-1.172,2.554,4.769,-2.812,-1.204,-3.704,0.033,0.997,0.061,-1.068,-0.427,-0.397,100.000,148067.000,1.000
0.539,0.065,-1.613,2.762,5.581,-1.294,-0.729,-5.331,0.034,0.994,0.062,-1.007,-0.336,-0.397,100.000,148068.000,1.000
0.977,-1.233,-3.096,2.461,6.087,-0.523,-1.242,-8.069,0.033,0.991,0.058,-1.038,-0.305,-0.336,100.000,148069.000,1.000
1.128,-2.800,-5.631,1.535,5.764,-0.651,-2.764,-11.012,0.035,0.994,0.058,-0.977,-0.305,-0.336,100.000,148070.000,1.000
0.653,-4.297,-9.043,0.034,4.202,-1.513,-4.960,-13.323,0.037,0.992,0.056,-0.854,-0.214,-0.275,100.000,148071.000,1.000
-0.344,-5.175,-12.397,-1.565,1.970,-2.482,-6.897,-14.209,0.037,0.990,0.059,-0.824,-0.214,-0.214,100.000,148072.000,1.000
-1.287,-4.821,-14.173,-2.455,0.433,-2.625,-7.320,-13.113,0.034,0.990,0.057,-0.885,-0.031,-0.214,100.000,148073.000,1.000
-1.601,-3.091,-13.429,-2.001,0.535,-1.300,-5.540,-10.209,0.034,0.990,0.056,-0.854,-0.092,-0.305,100.000,148074.000,1.000
-1.015,-0.484,-10.340,-0.246,2.366,1.283,-2.087,-6.479,0.035,0.990,0.057,-0.885,0.000,-0.214,100.000,148075.000,1.000
0.021,1.602,-6.682,1.873,4.581,3.919,1.322,-3.426,0.036,0.990,0.055,-0.824,0.061,-0.214,100.000,148076.000,1.000
0.766,1.827,-4.516,3.211,5.508,5.300,2.969,-2.134,0.035,0.991,0.057,-0.854,0.122,-0.275,100.000,148077.000,1.000
0.683,-0.181,-4.783,3.119,4.198,4.899,1.952,-2.955,0.034,0.991,0.059,-0.763,0.183,-0.244,100.000,148078.000,1.000
-0.208,-3.550,-6.966,1.719,0.792,3.220,-1.649,-5.688,0.035,0.993,0.059,-0.763,0.153,-0.244,100.000,148079.000,1.000
-1.175,-6.431,-9.327,-0.223,-3.179,1.453,-6.658,-9.489,0.035,0.993,0.059,-0.854,0.092,-0.244,100.000,148080.000,1.000
-1.423,-7.320,-10.398,-1.797,-6.126,0.748,-11.184,-13.061,0.032,0.993,0.061,-0.824,0.061,-0.397,100.000,148081.000,1.000
-0.417,-5.776,-9.488,-2.235,-6.946,1.794,-13.181,-14.838,0.034,0.995,0.060,-0.916,0.000,-0.427,100.000,148082.000,1.000
1.677,-2.806,-6.959,-1.347,-5.534,4.340,-11.599,-13.842,0.032,0.994,0.058,-0.946,0.061,-0.519,100.000,148083.000,1.000
3.904,-0.412,-4.194,0.267,-3.019,6.998,-7.355,-10.566,0.033,0.992,0.057,-0.916,0.031,-0.336,100.000,148084.000,1.000
5.221,-0.157,-2.400,1.638,-0.668,7.944,-2.884,-6.765,0.035,0.990,0.056,-0.977,0.061,-0.397,100.000,148085.000,1.000
4.920,-2.475,-2.309,1.986,0.433,6.095,-0.664,-4.415,0.036,0.990,0.057,-0.916,0.122,-0.519,100.000,148086.000,1.000
3.250,-6.243,-3.656,1.320,0.184,2.101,-1.466,-4.154,0.036,0.990,0.060,-0.885,0.061,-0.519,100.000,148087.000,1.000
1.285,-9.461,-5.287,0.355,-0.573,-2.061,-4.095,-5.024,0.033,0.993,0.061,-0.977,0.061,-0.610,100.000,148088.000,1.000
0.124,-10.514,-6.012,-0.084,-0.894,-4.390,-6.478,-5.565,0.033,0.992,0.063,-0.977,-0.031,-0.580,100.000,148089.000,1.000
0.313,-8.852,-5.047,0.417,0.019,-3.883,-6.916,-4.874,0.033,0.992,0.061,-0.946,-0.061,-0.610,100.000,148090.000,1.000
1.441,-5.440,-2.858,1.571,1.878,-0.966,-5.150,-3.226,0.033,0.994,0.060,-0.885,-0.122,-0.610,100.000,148091.000,1.000
2.635,-2.015,-0.629,2.626,3.743,2.895,-2.282,-1.565,0.034,0.994,0.058,-0.854,-0.183,-0.641,100.000,148092.000,1.000
2.921,-0.302,0.437,2.668,4.622,5.820,-0.063,-0.814,0.034,0.992,0.058,-0.946,-0.214,-0.580,100.000,148093.000,1.000
1.631,-1.193,-0.407,1.213,3.988,6.436,0.251,-1.265,0.034,0.991,0.059,-0.946,-0.275,-0.580,100.000,148094.000,1.000
-0.946,-3.986,-2.616,-1.212,2.699,4.755,-1.149,-2.315,0.032,0.991,0.060,-0.824,-0.336,-0.610,100.000,148095.000,1.000
-3.832,-7.167,-5.058,-3.487,1.925,1.941,-3.202,-3.321,0.033,0.990,0.059,-0.732,-0.336,-0.549,100.000,148096.000,1.000
-5.783,-9.271,-6.602,-4.636,2.377,-0.522,-4.846,-3.967,0.033,0.989,0.059,-0.671,-0.336,-0.580,100.000,148097.000,1.000
-6.046,-9.637,-6.703,-4.409,3.801,-1.731,-5.532,-4.107,0.034,0.990,0.058,-0.580,-0.366,-0.427,100.000,148098.000,1.000
-4.775,-8.569,-5.654,-3.197,5.128,-1.613,-5.155,-3.588,0.032,0.995,0.058,-0.671,-0.519,-0.488,100.000,148099.000,1.000
-2.561,-6.552,-3.756,-1.489,5.914,-0.389,-3.580,-2.126,0.035,0.997,0.059,-0.702,-0.488,-0.580,100.000,148100.000,1.000
-0.113,-3.989,-1.358,0.311,6.295,1.748,-0.793,0.351,0.038,1.000,0.061,-0.763,-0.458,-0.641,100.000,148101.000,1.000
2.204,-1.006,1.340,1.898,6.746,4.509,2.669,3.420,0.036,0.997,0.059,-0.885,-0.458,-0.458,100.000,148102.000,1.000
4.308,2.155,4.080,2.887,7.410,7.199,5.497,5.946,0.037,0.993,0.060,-0.854,-0.488,-0.427,100.000,148103.000,1.000
6.237,5.016,6.395,2.997,7.921,9.132,6.550,6.846,0.038,0.993,0.061,-0.793,-0.366,-0.397,100.000,148104.000,1.000
8.157,7.379,8.277,2.436,8.339,10.284,5.980,6.215,0.038,0.991,0.059,-0.793,-0.397,-0.458,100.000,148105.000,1.000
9.803,9.001,9.638,1.622,8.572,10.913,4.568,4.802,0.039,0.992,0.057,-0.824,-0.427,-0.336,100.000,148106.000,1.000
10.530,9.522,10.149,0.770,8.288,10.941,2.736,3.129,0.038,0.990,0.056,-0.763,-0.336,-0.305,100.000,148107.000,1.000
9.602,8.391,9.186,-0.404,6.937,9.744,0.228,1.107,0.037,0.990,0.058,-0.702,-0.275,-0.397,100.000,148108.000,1.000
6.712,5.212,6.123,-2.402,3.975,6.720,-3.344,-1.561,0.036,0.990,0.058,-0.763,-0.275,-0.275,100.000,148109.000,1.000
2.527,0.578,1.423,-5.340,-0.107,2.145,-7.746,-4.674,0.037,0.990,0.060,-0.824,-0.275,-0.366,100.000,148110.000,1.000
-1.825,-4.282,-3.758,-8.912,-4.358,-2.888,-12.251,-7.742,0.038,0.992,0.058,-0.732,-0.275,-0.366,100.000,148111.000,1.000
-5.161,-7.915,-7.944,-12.419,-7.628,-7.054,-15.861,-10.163,0.037,0.993,0.057,-0.793,-0.183,-0.488,100.000,148112.000,1.000
-6.694,-9.235,-9.923,-14.925,-9.018,-9.437,-17.716,-11.442,0.037,0.993,0.061,-0.916,-0.122,-0.458,100.000,148113.000,1.000
-6.318,-8.028,-9.367,-15.638,-8.469,-9.802,-17.574,-11.467,0.037,0.993,0.059,-0.916,-0.122,-0.458,100.000,148114.000,1.000
-4.394,-4.858,-6.499,-14.320,-6.342,-8.546,-15.907,-10.524,0.039,0.992,0.054,-0.977,-0.214,-0.427,100.000,148115.000,1.000
-1.699,-1.073,-2.267,-11.488,-3.533,-6.499,-13.626,-9.185,0.038,0.993,0.056,-0.977,-0.031,-0.519,100.000,148116.000,1.000
1.035,2.026,2.209,-7.984,-0.705,-4.311,-11.241,-7.654,0.038,0.996,0.055,-0.977,-0.031,-0.610,100.000,148117.000,1.000
3.119,3.575,5.755,-4.748,1.716,-2.352,-8.866,-5.800,0.036,0.995,0.058,-1.007,-0.031,-0.610,100.000,148118.000,1.000
3.894,3.159,7.103,-2.661,3.070,-0.967,-6.743,-3.621,0.038,0.994,0.060,-1.068,-0.031,-0.580,100.000,148119.000,1.000
3.205,1.194,5.940,-2.119,3.243,-0.317,-5.101,-1.201,0.038,0.996,0.060,-1.129,-0.031,-0.702,100.000,148120.000,1.000
1.255,-1.447,2.861,-2.967,2.431,-0.270,-4.010,1.186,0.038,0.995,0.058,-1.099,0.122,-0.610,100.000,148121.000,1.000
-1.348,-3.648,-0.803,-4.584,1.225,-0.384,-3.162,3.204,0.037,0.996,0.058,-1.190,0.122,-0.732,100.000,148122.000,1.000
-3.779,-4.515,-3.652,-6.226,0.314,-0.116,-2.034,4.513,0.035,0.995,0.059,-1.251,0.153,-0.763,100.000,148123.000,1.000
-5.369,-3.777,-4.985,-7.349,0.005,0.944,-0.306,4.938,0.034,0.991,0.055,-1.251,0.092,-0.763,100.000,148124.000,1.000
-5.794,-1.729,-4.775,-7.838,0.401,2.704,1.686,4.603,0.036,0.990,0.056,-1.221,0.092,-0.916,100.000,148125.000,1.000
-5.509,0.462,-4.146,-8.214,0.662,4.193,2.638,3.433,0.037,0.990,0.057,-1.129,0.031,-0.854,100.000,148126.000,1.000
-5.253,1.592,-4.379,-9.055,-0.063,4.395,1.499,1.417,0.039,0.990,0.057,-0.977,-0.031,-0.885,100.000,148127.000,1.000
-5.553,1.282,-5.804,-10.406,-1.627,3.266,-1.364,-0.941,0.040,0.990,0.060,-0.916,0.031,-0.793,100.000,148128.000,1.000
-6.576,0.025,-7.905,-11.772,-3.254,1.674,-4.441,-2.707,0.040,0.989,0.060,-0.732,0.092,-0.671,100.000,148129.000,1.000
-8.001,-1.124,-9.643,-12.505,-4.015,0.566,-6.148,-2.987,0.040,0.990,0.062,-0.671,0.214,-0.641,100.000,148130.000,1.000
-9.457,-1.477,-10.556,-12.369,-3.936,0.232,-5.898,-1.654,0.039,0.989,0.059,-0.549,0.122,-0.580,100.000,148131.000,1.000
-10.553,-0.773,-10.641,-11.563,-3.449,0.455,-4.073,0.762,0.035,0.991,0.059,-0.458,0.092,-0.580,100.000,148132.000,1.000
-11.067,0.738,-10.073,-10.567,-2.910,0.753,-1.684,3.330,0.034,0.993,0.061,-0.488,0.183,-0.519,100.000,148133.000,1.000
-11.156,2.162,-9.359,-9.983,-2.896,0.513,0.023,4.960,0.037,0.994,0.058,-0.427,0.122,-0.458,100.000,148134.000,1.000
-11.081,2.590,-8.850,-10.221,-3.669,-0.650,0.271,5.014,0.035,0.994,0.054,-0.488,0.061,-0.336,100.000,148135.000,1.000
-11.173,1.503,-8.901,-11.347,-5.324,-2.623,-0.956,3.536,0.033,0.993,0.052,-0.580,-0.031,-0.427,100.000,148136.000,1.000
-11.484,-0.683,-9.449,-12.949,-7.314,-4.640,-2.849,1.348,0.034,0.993,0.055,-0.519,-0.092,-0.397,100.000,148137.000,1.000
-11.874,-2.961,-10.111,-14.458,-8.785,-5.762,-4.375,-0.552,0.035,0.995,0.059,-0.549,-0.061,-0.488,100.000,148138.000,1.000
-12.249,-4.536,-10.808,-15.542,-9.460,-5.569,-4.953,-1.695,0.035,0.996,0.055,-0.488,-0.122,-0.427,100.000,148139.000,1.000
-12.480,-5.040,-11.478,-16.139,-9.328,-4.450,-4.515,-2.076,0.036,0.994,0.056,-0.397,-0.153,-0.427,100.000,148140.000,1.000
-12.629,-4.847,-12.312,-16.483,-8.960,-3.435,-3.545,-2.053,0.036,0.996,0.058,-0.488,-0.427,-0.549,100.000,148141.000,1.000
-12.730,-4.499,-13.312,-16.832,-8.906,-3.304,-2.628,-1.971,0.037,0.996,0.057,-0.519,-0.366,-0.549,100.000,148142.000,1.000
-12.832,-4.340,-14.167,-17.282,-9.326,-4.012,-2.003,-1.974,0.039,0.995,0.055,-0.488,-0.397,-0.610,100.000,148143.000,1.000
-13.032,-4.512,-14.626,-17.706,-10.101,-4.822,-1.310,-1.874,0.039,0.997,0.058,-0.549,-0.366,-0.732,100.000,148144.000,1.000
-13.069,-4.745,-14.252,-17.846,-10.518,-4.932,0.171,-1.173,0.039,0.998,0.059,-0.549,-0.366,-0.763,100.000,148145.000,1.000
-12.656,-4.919,-13.118,-17.820,-10.400,-4.347,2.291,0.007,0.040,0.995,0.057,-0.580,-0.244,-0.763,100.000,148146.000,1.000
-11.702,-5.081,-11.772,-18.154,-10.185,-3.845,3.774,0.754,0.042,0.996,0.060,-0.610,-0.366,-0.763,100.000,148147.000,1.000
-10.541,-5.389,-10.913,-19.344,-10.465,-4.285,3.227,0.163,0.041,0.994,0.062,-0.763,-0.275,-0.977,100.000,148148.000,1.000
-9.735,-6.015,-11.095,-21.287,-11.653,-5.917,0.290,-1.773,0.039,0.993,0.063,-0.671,-0.214,-0.946,100.000,148149.000,1.000
-9.438,-6.710,-11.977,-23.101,-13.249,-8.078,-3.940,-4.014,0.038,0.993,0.062,-0.641,-0.061,-1.068,100.000,148150.000,1.000
-9.533,-7.144,-12.925,-23.725,-14.604,-9.654,-7.727,-5.458,0.041,0.993,0.063,-0.610,-0.153,-1.099,100.000,148151.000,1.000
-9.610,-6.846,-13.208,-22.412,-14.996,-9.629,-9.502,-5.420,0.041,0.993,0.062,-0.580,-0.153,-1.190,100.000,148152.000,1.000
-9.068,-5.344,-12.183,-19.051,-13.806,-7.590,-8.623,-3.846,0.041,0.993,0.059,-0.580,-0.122,-1.495,100.000,148153.000,1.000
-7.417,-2.617,-9.748,-14.300,-11.124,-3.907,-5.709,-1.398,0.038,0.994,0.062,-0.458,-0.061,-1.495,100.000,148154.000,1.000
-4.474,0.912,-6.054,-9.317,-7.396,0.603,-2.039,0.977,0.037,0.991,0.062,-0.427,0.000,-1.556,100.000,148155.000,1.000
-0.902,4.184,-1.954,-5.383,-3.750,4.936,1.068,2.368,0.036,0.990,0.062,-0.366,-0.122,-1.495,100.000,148156.000,1.000
2.135,6.199,1.402,-3.277,-1.300,8.160,2.757,2.346,0.036,0.990,0.060,-0.305,0.031,-1.556,100.000,148157.000,1.000
3.542,6.492,3.083,-3.043,-0.575,9.573,2.627,0.967,0.037,0.988,0.060,-0.214,0.000,-1.495,100.000,148158.000,1.000
2.789,5.217,2.589,-4.071,-1.545,9.006,0.724,-1.375,0.036,0.988,0.062,-0.092,-0.061,-1.465,100.000,148159.000,1.000
0.451,3.384,0.554,-5.211,-3.145,7.181,-2.066,-3.776,0.035,0.990,0.062,0.031,0.031,-1.434,100.000,148160.000,1.000
-2.159,2.174,-1.805,-5.280,-4.166,5.430,-4.285,-5.131,0.034,0.990,0.063,0.122,0.092,-1.312,100.000,148161.000,1.000
-3.561,2.451,-3.186,-3.582,-3.627,5.079,-4.488,-4.477,0.035,0.988,0.061,0.122,0.092,-1.190,100.000,148162.000,1.000
-3.033,4.265,-2.954,-0.379,-1.277,6.670,-2.159,-1.626,0.034,0.989,0.063,0.061,0.061,-1.129,100.000,148163.000,1.000
-1.040,6.782,-1.655,3.236,1.974,9.679,1.963,2.577,0.033,0.990,0.060,0.153,0.122,-1.007,100.000,148164.000,1.000
1.319,9.011,-0.189,6.049,4.966,12.932,6.433,6.851,0.034,0.991,0.056,0.275,0.092,-0.854,100.000,148165.000,1.000
2.742,10.022,0.392,7.099,6.389,15.062,9.399,9.677,0.034,0.989,0.054,0.214,0.092,-0.763,100.000,148166.000,1.000
2.546,9.494,-0.410,6.080,5.605,15.148,9.401,9.803,0.033,0.989,0.054,0.244,-0.031,-0.610,100.000,148167.000,1.000
0.901,7.713,-2.309,3.463,2.956,13.024,6.206,6.914,0.034,0.987,0.059,0.214,0.061,-0.549,100.000,148168.000,1.000
-1.512,5.132,-4.769,0.242,-0.778,9.368,1.059,1.943,0.035,0.990,0.059,0.336,0.000,-0.458,100.000,148169.000,1.000
-3.742,2.468,-6.909,-2.489,-4.201,5.647,-3.730,-3.162,0.036,0.988,0.060,0.366,-0.092,-0.275,100.000,148170.000,1.000
-5.336,0.190,-8.234,-4.193,-6.269,3.150,-6.252,-6.582,0.035,0.990,0.057,0.488,-0.092,-0.275,100.000,148171.000,1.000
-6.370,-1.493,-8.618,-4.959,-6.516,2.147,-6.021,-7.406,0.037,0.989,0.058,0.458,-0.031,-0.305,100.000,148172.000,1.000
-7.079,-2.495,-8.118,-5.195,-5.145,2.020,-4.046,-6.025,0.037,0.990,0.060,0.488,0.000,-0.305,100.000,148173.000,1.000
-7.667,-2.863,-7.168,-5.359,-3.261,2.015,-2.086,-3.931,0.038,0.993,0.058,0.549,0.031,-0.244,100.000,148174.000,1.000
-8.196,-2.690,-6.148,-5.787,-1.988,1.723,-1.497,-2.603,0.039,0.995,0.056,0.427,0.000,-0.183,100.000,148175.000,1.000
-8.840,-2.443,-5.496,-6.663,-2.217,1.033,-2.586,-2.642,0.039,0.997,0.056,0.519,-0.031,-0.244,100.000,148176.000,1.000
-9.505,-2.453,-5.116,-7.733,-3.713,0.338,-4.214,-3.313,0.039,0.998,0.059,0.397,0.031,-0.366,100.000,148177.000,1.000
-9.900,-2.718,-4.445,-8.442,-5.318,0.296,-4.579,-3.299,0.038,1.000,0.055,0.488,0.061,-0.397,100.000,148178.000,1.000
-10.009,-3.247,-3.368,-8.437,-6.361,1.132,-2.826,-2.010,0.041,0.997,0.056,0.458,0.092,-0.549,100.000,148179.000,1.000
-9.991,-3.959,-2.123,-7.796,-6.818,2.393,0.259,0.088,0.043,0.995,0.054,0.427,0.122,-0.732,100.000,148180.000,1.000
-10.052,-4.852,-1.354,-6.952,-7.378,3.361,2.923,1.956,0.043,0.994,0.054,0.519,0.122,-0.824,100.000,148181.000,1.000
-9.956,-5.549,-1.229,-6.115,-8.233,3.864,4.196,3.237,0.046,0.996,0.055,0.519,0.275,-0.854,100.000,148182.000,1.000
-9.294,-5.442,-1.212,-5.164,-8.747,4.197,4.380,4.465,0.047,0.995,0.054,0.610,0.488,-0.854,100.000,148183.000,1.000
-8.049,-4.404,-0.901,-3.992,-8.565,4.476,4.094,6.026,0.048,0.996,0.053,0.610,0.580,-1.099,100.000,148184.000,1.000
-6.390,-2.709,0.011,-2.569,-7.677,4.619,3.684,7.546,0.047,0.995,0.055,0.732,0.671,-1.251,100.000,148185.000,1.000
-4.683,-0.994,1.405,-0.921,-6.651,4.508,3.214,8.128,0.047,0.993,0.055,0.610,0.854,-1.343,100.000,148186.000,1.000
-3.180,0.316,3.111,1.063,-5.778,4.175,2.998,7.579,0.046,0.994,0.051,0.702,1.038,-1.404,100.000,148187.000,1.000
-1.952,1.195,5.091,3.505,-4.755,3.790,3.533,6.742,0.047,0.994,0.052,0.763,1.068,-1.556,100.000,148188.000,1.000
-1.082,1.779,7.106,6.183,-3.455,3.548,4.860,6.569,0.045,0.993,0.054,0.793,1.251,-1.709,100.000,148189.000,1.000
-0.598,2.398,9.044,8.440,-1.848,3.508,6.416,7.347,0.047,0.991,0.053,0.885,1.465,-1.648,100.000,148190.000,1.000
-0.659,3.073,10.509,9.434,-0.493,3.435,7.268,8.424,0.048,0.991,0.055,0.854,1.495,-1.770,100.000,148191.000,1.000
-1.187,3.741,11.253,8.929,0.078,3.318,7.031,9.008,0.046,0.995,0.055,0.824,1.526,-1.831,100.000,148192.000,1.000
-1.747,4.421,11.494,7.571,-0.159,3.542,6.206,8.882,0.042,0.995,0.051,0.793,1.465,-1.862,100.000,148193.000,1.000
-1.773,5.112,11.583,6.468,-0.895,4.426,5.673,8.518,0.038,0.995,0.053,0.763,1.648,-1.923,100.000,148194.000,1.000
-0.678,6.068,12.220,6.663,-1.078,5.998,6.222,8.867,0.038,0.994,0.054,0.732,1.495,-2.014,100.000,148195.000,1.000
1.450,7.282,13.635,8.477,-0.100,7.895,7.913,10.392,0.037,0.991,0.053,0.610,1.526,-2.136,100.000,148196.000,1.000
3.864,8.337,15.393,11.316,1.556,9.374,9.923,12.547,0.035,0.991,0.054,0.610,1.495,-2.258,100.000,148197.000,1.000
5.663,8.580,16.715,13.918,2.513,9.397,10.848,13.967,0.037,0.990,0.055,0.671,1.526,-2.350,100.000,148198.000,1.000
6.404,7.617,16.933,15.144,1.455,7.257,9.611,13.432,0.037,0.991,0.060,0.854,1.465,-2.472,100.000,148199.000,1.000
6.483,5.968,16.299,14.729,-1.232,3.362,6.437,10.994,0.036,0.989,0.056,0.732,1.343,-2.502,100.000,148200.000,1.000
6.433,4.420,15.207,13.101,-4.306,-0.960,2.457,7.597,0.037,0.989,0.055,0.641,1.343,-2.625,100.000,148201.000,1.000
6.682,3.665,13.986,11.092,-6.507,-4.037,-0.883,4.418,0.038,0.989,0.057,0.671,1.343,-2.594,100.000,148202.000,1.000
7.453,4.028,13.023,9.594,-7.023,-4.711,-2.411,2.397,0.036,0.989,0.056,0.824,1.312,-2.686,100.000,148203.000,1.000
8.542,5.104,12.389,9.046,-5.968,-3.182,-1.975,1.790,0.035,0.989,0.054,0.885,1.312,-2.960,100.000,148204.000,1.000
9.574,6.034,12.083,9.246,-3.889,-0.966,-0.618,2.059,0.035,0.991,0.054,0.916,1.190,-3.052,100.000,148205.000,1.000
10.123,5.699,11.663,9.580,-2.040,0.014,-0.009,2.073,0.035,0.994,0.053,0.916,1.160,-3.326,100.000,148206.000,1.000
10.113,3.563,10.709,9.686,-1.527,-1.161,-1.028,1.189,0.034,0.998,0.052,0.916,1.068,-3.387,100.000,148207.000,1.000
9.743,0.029,9.182,9.610,-2.504,-3.938,-3.253,-0.286,0.033,1.001,0.052,1.007,1.007,-3.540,100.000,148208.000,1.000
9.279,-3.817,7.365,9.581,-4.210,-6.849,-5.496,-1.537,0.034,1.002,0.052,0.977,1.007,-3.784,100.000,148209.000,1.000
9.225,-6.360,6.314,9.919,-4.916,-8.310,-6.349,-1.667,0.036,1.002,0.052,0.916,0.885,-3.845,100.000,148210.000,1.000
9.794,-6.601,6.795,10.663,-3.689,-7.586,-5.160,-0.461,0.040,1.003,0.050,0.854,0.885,-3.815,100.000,148211.000,1.000
10.757,-4.692,8.604,11.448,-1.066,-5.099,-2.489,1.490,0.041,1.000,0.052,0.824,0.885,-3.723,100.000,148212.000,1.000
11.527,-1.794,10.629,11.674,1.536,-2.114,0.220,3.201,0.040,0.998,0.047,0.916,1.007,-3.632,100.000,148213.000,1.000
11.505,0.567,11.458,10.949,2.711,0.050,1.668,3.935,0.034,1.000,0.044,1.038,1.190,-3.662,100.000,148214.000,1.000
10.729,1.626,10.810,9.550,2.480,0.889,1.848,3.844,0.028,1.004,0.046,1.160,1.160,-3.784,100.000,148215.000,1.000
9.548,1.255,9.148,8.012,1.498,0.630,1.578,3.514,0.026,1.006,0.043,1.221,1.038,-3.876,100.000,148216.000,1.000
8.271,-0.267,7.071,6.602,0.325,-0.253,1.445,3.341,0.026,1.001,0.042,1.129,1.099,-3.754,100.000,148217.000,1.000
6.940,-2.559,4.911,5.121,-0.806,-1.451,1.347,3.190,0.028,0.997,0.040,1.251,1.099,-3.662,100.000,148218.000,1.000
5.352,-5.290,2.566,3.222,-1.971,-2.845,0.991,2.705,0.031,0.993,0.035,1.434,1.099,-3.387,100.000,148219.000,1.000
3.514,-7.726,0.295,0.957,-2.692,-4.158,0.610,2.068,0.038,0.991,0.035,1.678,1.251,-3.204,100.000,148220.000,1.000
1.542,-9.095,-1.583,-1.229,-2.602,-4.995,0.701,1.785,0.039,0.990,0.037,1.801,1.404,-3.021,100.000,148221.000,1.000
-0.153,-8.870,-2.715,-2.711,-1.650,-5.045,1.558,2.190,0.039,0.989,0.033,1.923,1.526,-2.808,100.000,148222.000,1.000
-1.081,-7.256,-2.939,-3.130,-0.299,-4.509,2.675,2.889,0.037,0.990,0.034,2.136,1.617,-2.350,100.000,148223.000,1.000
-1.111,-5.338,-2.696,-2.651,0.336,-4.124,2.808,2.830,0.035,0.992,0.033,2.289,1.801,-2.136,100.000,148224.000,1.000
-0.224,-3.985,-2.066,-1.585,0.053,-4.424,1.268,1.476,0.034,0.993,0.034,2.380,1.801,-1.923,100.000,148225.000,1.000
1.407,-3.532,-0.749,-0.171,-0.333,-5.377,-1.465,-0.725,0.031,0.993,0.032,2.472,1.923,-1.648,100.000,148226.000,1.000
3.395,-3.927,1.478,1.450,0.153,-6.578,-4.094,-2.662,0.029,0.992,0.030,2.472,2.014,-1.526,100.000,148227.000,1.000
4.933,-5.273,3.944,3.004,1.264,-7.699,-5.506,-3.421,0.031,0.993,0.029,2.625,2.014,-1.190,100.000,148228.000,1.000
5.095,-7.782,5.112,4.101,1.510,-8.539,-5.358,-2.789,0.030,0.993,0.026,2.747,2.045,-0.977,100.000,148229.000,1.000
4.029,-10.611,4.689,4.710,0.801,-8.598,-3.613,-0.767,0.031,0.994,0.025,2.716,2.106,-0.793,100.000,148230.000,1.000
2.885,-12.202,3.986,5.151,0.822,-7.341,-0.475,2.406,0.034,0.990,0.028,2.655,2.106,-0.610,100.000,148231.000,1.000
2.616,-11.719,4.386,5.658,3.044,-4.953,3.214,5.937,0.035,0.992,0.025,2.594,2.045,-0.458,100.000,148232.000,1.000
2.804,-10.205,5.415,5.962,6.395,-2.693,5.854,8.483,0.038,0.992,0.029,2.441,2.228,-0.305,100.000,148233.000,1.000
2.326,-9.644,5.059,5.699,7.853,-1.907,6.140,9.008,0.040,0.990,0.030,2.411,2.167,-0.153,100.000,148234.000,1.000
1.155,-10.530,2.776,5.129,6.331,-2.747,4.291,7.720,0.040,0.989,0.028,2.350,2.289,0.092,100.000,148235.000,1.000
0.226,-11.734,0.008,4.827,3.473,-4.450,1.452,5.499,0.043,0.990,0.027,2.289,2.380,0.031,100.000,148236.000,1.000
0.317,-11.965,-1.526,5.084,1.549,-6.234,-1.341,3.133,0.045,0.989,0.026,2.228,2.502,0.031,100.000,148237.000,1.000
1.203,-11.151,-1.744,5.638,0.884,-7.755,-3.613,0.832,0.047,0.987,0.029,2.014,2.380,0.092,100.000,148238.000,1.000
2.047,-10.186,-2.061,6.001,-0.146,-8.849,-5.227,-1.604,0.047,0.984,0.027,1.831,2.472,0.061,100.000,148239.000,1.000
2.819,-9.165,-2.703,6.218,-1.778,-8.998,-5.702,-3.721,0.047,0.985,0.025,1.587,2.655,0.183,100.000,148240.000,1.000
4.375,-7.271,-2.214,6.873,-2.160,-7.614,-4.381,-4.397,0.047,0.988,0.027,1.526,2.686,0.031,100.000,148241.000,1.000
7.419,-3.926,0.792,8.395,0.505,-4.714,-1.201,-2.952,0.046,0.988,0.027,1.404,2.655,-0.092,100.000,148242.000,1.000
11.243,-0.103,5.407,10.209,5.175,-1.454,2.439,-0.389,0.043,0.987,0.031,1.221,2.625,-0.275,100.000,148243.000,1.000
13.973,2.004,8.503,10.915,8.124,0.351,4.136,1.069,0.043,0.988,0.030,1.129,2.502,-0.366,100.000,148244.000,1.000
14.483,1.241,8.049,9.617,7.144,-0.417,2.540,0.115,0.043,0.992,0.032,1.007,2.380,-0.641,100.000,148245.000,1.000
13.095,-1.697,4.683,6.672,3.386,-3.528,-1.695,-2.779,0.040,0.991,0.033,0.763,2.411,-0.763,100.000,148246.000,1.000
11.011,-4.981,0.781,3.425,-0.101,-7.588,-6.645,-6.169,0.038,0.993,0.035,0.488,2.350,-0.977,100.000,148247.000,1.000
9.149,-7.159,-1.899,1.219,-1.459,-10.815,-10.595,-9.081,0.037,0.995,0.032,0.458,2.228,-1.190,100.000,148248.000,1.000
7.655,-8.016,-3.506,0.669,-1.339,-11.932,-12.729,-11.441,0.038,0.997,0.035,0.183,1.984,-1.373,100.000,148249.000,1.000
6.547,-7.853,-4.520,1.695,-0.622,-10.699,-12.791,-13.148,0.036,1.000,0.035,-0.031,1.770,-1.526,100.000,148250.000,1.000
5.861,-7.110,-4.940,3.639,0.557,-8.030,-11.096,-13.807,0.034,1.000,0.037,-0.244,1.617,-1.648,100.000,148251.000,1.000
5.594,-6.063,-4.476,5.641,2.389,-5.215,-8.316,-13.053,0.032,1.001,0.038,-0.305,1.312,-1.709,100.000,148252.000,1.000
5.439,-4.991,-3.399,7.031,4.312,-3.079,-5.185,-11.120,0.031,1.000,0.039,-0.427,1.007,-1.801,100.000,148253.000,1.000
4.937,-4.269,-2.730,7.676,4.935,-1.726,-2.228,-8.754,0.029,0.999,0.042,-0.519,0.732,-1.801,100.000,148254.000,1.000
4.357,-3.520,-2.563,8.157,4.206,-0.638,0.692,-6.228,0.028,1.000,0.043,-0.488,0.397,-1.862,100.000,148255.000,1.000
4.515,-1.749,-1.857,9.168,3.587,0.800,3.908,-3.356,0.026,0.998,0.044,-0.580,0.122,-1.801,100.000,148256.000,1.000
5.986,1.755,0.431,10.758,4.623,2.723,7.147,-0.290,0.027,0.996,0.042,-0.641,-0.305,-1.801,100.000,148257.000,1.000
8.137,6.169,3.642,11.968,6.996,4.339,9.204,1.875,0.026,0.996,0.041,-0.580,-0.610,-1.740,100.000,148258.000,1.000
9.294,9.317,5.341,11.548,8.365,4.387,8.839,1.855,0.026,0.993,0.041,-0.519,-0.977,-1.770,100.000,148259.000,1.000
8.382,9.797,4.172,9.298,7.270,2.321,6.097,-0.303,0.028,0.995,0.036,-0.549,-1.312,-1.740,100.000,148260.000,1.000
5.691,7.766,1.010,6.261,4.202,-1.386,2.132,-3.322,0.031,0.997,0.039,-0.519,-1.495,-1.495,100.000,148261.000,1.000
2.579,4.541,-1.955,3.955,1.021,-5.479,-1.436,-5.638,0.032,0.995,0.039,-0.427,-1.770,-1.404,100.000,148262.000,1.000
0.190,1.498,-3.284,3.252,-0.761,-8.538,-3.254,-6.352,0.036,0.997,0.042,-0.366,-1.984,-1.221,100.000,148263.000,1.000
-1.512,-0.816,-3.639,3.801,-1.419,-9.828,-2.975,-5.612,0.035,0.998,0.042,-0.305,-2.075,-1.160,100.000,148264.000,1.000
-3.041,-2.276,-4.266,4.560,-1.809,-9.658,-1.299,-4.129,0.037,0.998,0.042,-0.427,-2.045,-1.038,100.000,148265.000,1.000
-4.607,-3.026,-5.640,4.615,-2.514,-9.162,0.321,-2.884,0.039,0.998,0.044,-0.397,-2.258,-0.946,100.000,148266.000,1.000
-5.876,-3.299,-7.110,3.698,-3.457,-9.504,0.531,-2.705,0.039,0.998,0.044,-0.366,-2.319,-0.793,100.000,148267.000,1.000
-6.668,-3.549,-8.084,1.968,-4.555,-11.214,-1.272,-4.029,0.039,0.997,0.041,-0.366,-2.380,-0.824,100.000,148268.000,1.000
-7.267,-4.313,-9.038,-0.218,-6.340,-13.887,-4.646,-6.744,0.042,0.998,0.044,-0.275,-2.411,-0.671,100.000,148269.000,1.000
-7.620,-5.352,-10.282,-2.164,-8.602,-16.250,-7.923,-9.733,0.041,0.998,0.045,-0.275,-2.319,-0.671,100.000,148270.000,1.000
-7.317,-6.045,-11.493,-3.190,-10.384,-17.055,-9.187,-11.411,0.045,0.998,0.044,-0.336,-2.441,-0.702,100.000,148271.000,1.000
-5.989,-5.945,-11.861,-3.056,-10.590,-15.883,-7.663,-10.765,0.047,0.996,0.046,-0.366,-2.289,-0.732,100.000,148272.000,1.000
-3.960,-5.191,-10.929,-2.217,-9.047,-13.445,-4.515,-8.344,0.049,0.995,0.045,-0.458,-2.228,-0.793,100.000,148273.000,1.000
-2.314,-4.536,-9.396,-1.577,-7.026,-11.179,-2.078,-6.037,0.051,0.992,0.046,-0.458,-2.228,-0.885,100.000,148274.000,1.000
-1.757,-4.432,-8.027,-1.649,-5.547,-10.181,-1.843,-5.322,0.052,0.991,0.050,-0.549,-2.045,-0.977,100.000,148275.000,1.000
-2.073,-4.790,-7.081,-2.131,-4.807,-10.478,-3.475,-6.232,0.056,0.991,0.049,-0.610,-1.831,-0.885,100.000,148276.000,1.000
-2.321,-4.990,-6.167,-2.130,-4.262,-11.111,-5.229,-7.513,0.057,0.987,0.048,-0.641,-1.709,-1.038,100.000,148277.000,1.000
-1.778,-4.535,-4.928,-1.020,-3.534,-11.221,-5.617,-7.926,0.059,0.985,0.049,-0.610,-1.556,-1.221,100.000,148278.000,1.000
-0.595,-3.701,-3.797,0.969,-3.292,-10.911,-4.818,-7.423,0.062,0.982,0.047,-0.549,-1.221,-1.373,100.000,148279.000,1.000
0.654,-3.064,-3.164,3.012,-4.084,-10.871,-4.098,-6.811,0.063,0.977,0.046,-0.458,-1.038,-1.465,100.000,148280.000,1.000
1.165,-3.338,-3.355,4.060,-6.029,-11.714,-4.588,-7.043,0.064,0.974,0.047,-0.336,-0.732,-1.770,100.000,148281.000,1.000
0.298,-4.883,-4.566,3.379,-8.634,-13.451,-6.422,-8.393,0.063,0.973,0.049,-0.153,-0.336,-2.045,100.000,148282.000,1.000
-2.118,-7.461,-6.765,0.976,-11.070,-15.493,-8.814,-10.298,0.060,0.972,0.049,0.092,-0.031,-2.289,100.000,148283.000,1.000
-5.609,-10.355,-9.696,-2.278,-12.827,-16.918,-10.559,-11.744,0.056,0.973,0.045,0.427,0.244,-2.472,100.000,148284.000,1.000
-8.841,-12.307,-12.234,-4.980,-13.326,-16.821,-10.556,-11.666,0.054,0.972,0.045,0.519,0.580,-2.869,100.000,148285.000,1.000
-10.492,-12.422,-13.265,-6.168,-12.598,-15.009,-8.739,-9.874,0.051,0.973,0.049,0.824,0.793,-3.174,100.000,148286.000,1.000
-9.934,-10.527,-12.315,-5.706,-11.043,-11.998,-5.954,-7.092,0.048,0.974,0.049,1.038,1.007,-3.540,100.000,148287.000,1.000
-7.394,-7.002,-9.559,-3.989,-8.758,-8.377,-2.983,-4.140,0.045,0.976,0.051,1.190,1.038,-3.906,100.000,148288.000,1.000
-3.692,-2.611,-5.803,-1.557,-5.742,-4.412,-0.045,-1.393,0.044,0.978,0.050,1.434,1.038,-4.181,100.000,148289.000,1.000
0.337,1.883,-1.863,1.089,-1.906,-0.218,2.906,1.146,0.044,0.981,0.050,1.526,1.160,-4.456,100.000,148290.000,1.000
3.715,5.430,1.138,3.333,1.909,3.651,5.383,3.108,0.043,0.984,0.051,1.526,1.221,-4.761,100.000,148291.000,1.000
5.653,7.166,2.388,4.671,4.517,6.366,6.789,4.011,0.042,0.986,0.046,1.526,1.160,-5.035,100.000,148292.000,1.000
5.961,7.021,2.242,5.025,5.614,7.463,7.214,3.974,0.042,0.988,0.046,1.678,1.251,-5.157,100.000,148293.000,1.000
5.174,5.809,1.956,4.848,5.851,7.355,7.362,3.786,0.039,0.992,0.048,1.801,1.282,-5.249,100.000,148294.000,1.000
4.474,5.129,3.144,4.998,6.612,7.368,8.009,4.420,0.039,0.993,0.047,1.678,1.312,-5.249,100.000,148295.000,1.000
4.689,6.112,6.159,6.099,8.357,8.818,9.299,6.069,0.039,0.994,0.045,1.709,1.495,-5.188,100.000,148296.000,1.000
6.035,8.981,10.177,8.318,10.767,12.301,11.114,8.378,0.036,0.996,0.047,1.617,1.556,-5.249,100.000,148297.000,1.000
8.438,13.431,14.515,11.444,13.971,17.593,13.753,11.231,0.032,0.998,0.049,1.495,1.617,-5.310,100.000,148298.000,1.000
11.460,18.669,18.794,14.808,18.237,23.616,17.566,14.616,0.031,1.000,0.048,1.282,1.404,-5.096,100.000,148299.000,1.000
14.017,23.242,22.367,17.168,22.918,28.339,21.747,17.769,0.027,1.001,0.052,1.099,1.343,-5.096,100.000,148300.000,1.000
14.180,24.719,23.192,16.883,25.044,29.056,23.565,18.566,0.025,1.002,0.051,0.854,1.190,-5.096,100.000,148301.000,1.000
10.679,21.311,19.362,13.093,21.585,24.075,20.364,15.123,0.024,1.001,0.054,0.610,1.129,-4.944,100.000,148302.000,1.000
4.398,13.818,11.729,6.792,13.129,14.396,12.370,8.001,0.023,1.002,0.054,0.397,1.160,-4.822,100.000,148303.000,1.000
-2.033,5.369,3.853,0.423,3.912,3.443,2.829,0.147,0.018,1.003,0.052,0.183,0.885,-4.761,100.000,148304.000,1.000
-6.002,-0.558,-0.463,-3.653,-1.424,-4.892,-4.340,-5.240,0.018,1.004,0.048,-0.031,0.732,-4.730,100.000,148305.000,1.000
-6.905,-2.612,-0.625,-4.690,-2.165,-8.438,-7.136,-7.012,0.017,1.004,0.049,-0.275,0.488,-4.730,100.000,148306.000,1.000
-5.781,-1.518,1.105,-3.496,-0.955,-7.290,-5.824,-5.880,0.016,1.002,0.053,-0.458,0.183,-4.608,100.000,148307.000,1.000
-3.601,1.499,2.751,-1.341,0.132,-3.085,-1.928,-2.967,0.014,1.001,0.052,-0.580,-0.031,-4.669,100.000,148308.000,1.000
-0.561,5.436,4.134,0.839,1.289,1.950,2.662,0.751,0.014,0.999,0.056,-0.732,-0.519,-4.669,100.000,148309.000,1.000
3.316,9.384,6.073,2.582,3.771,5.998,6.528,4.407,0.015,0.996,0.053,-0.946,-0.793,-4.700,100.000,148310.000,1.000
7.061,11.801,7.994,3.546,6.874,8.130,8.975,7.084,0.015,0.991,0.054,-0.885,-0.885,-4.730,100.000,148311.000,1.000
9.313,11.348,8.210,3.535,8.277,8.215,9.847,8.188,0.018,0.988,0.051,-0.824,-1.160,-4.822,100.000,148312.000,1.000
9.571,8.237,6.238,2.684,6.872,6.473,9.100,7.648,0.022,0.986,0.050,-0.854,-1.343,-4.822,100.000,148313.000,1.000
8.571,4.312,3.646,1.558,3.931,3.428,6.949,5.989,0.024,0.985,0.050,-0.580,-1.404,-4.913,100.000,148314.000,1.000
7.582,1.855,2.780,0.911,1.912,-0.002,4.344,4.291,0.024,0.986,0.049,-0.488,-1.434,-5.005,100.000,148315.000,1.000
6.859,1.486,3.761,0.872,1.161,-3.136,2.297,3.151,0.027,0.987,0.048,-0.336,-1.526,-5.005,100.000,148316.000,1.000
5.843,2.292,4.669,0.935,0.138,-5.647,1.388,2.463,0.027,0.989,0.050,-0.305,-1.495,-5.188,100.000,148317.000,1.000
4.492,3.487,4.394,0.655,-1.593,-7.086,1.864,2.203,0.026,0.988,0.049,-0.061,-1.526,-5.219,100.000,148318.000,1.000
3.704,5.114,3.856,0.088,-2.443,-6.819,3.643,2.738,0.028,0.987,0.050,0.092,-1.495,-5.188,100.000,148319.000,1.000
4.468,7.480,4.802,-0.444,-0.503,-4.538,6.217,4.281,0.029,0.984,0.055,0.153,-1.404,-5.188,100.000,148320.000,1.000
6.354,9.704,6.952,-0.999,3.252,-0.967,8.342,6.023,0.031,0.983,0.055,0.305,-1.312,-5.157,100.000,148321.000,1.000
7.940,10.317,8.313,-1.764,5.839,2.490,8.779,6.831,0.031,0.980,0.055,0.275,-1.221,-5.096,100.000,148322.000,1.000
8.339,8.949,7.900,-2.532,5.807,4.743,7.350,6.532,0.031,0.978,0.056,0.397,-0.977,-4.852,100.000,148323.000,1.000
7.785,6.596,6.705,-2.889,4.269,5.464,4.868,5.867,0.030,0.980,0.061,0.549,-0.885,-4.761,100.000,148324.000,1.000
7.089,4.555,6.448,-2.767,3.235,4.841,2.184,5.361,0.031,0.983,0.057,0.793,-0.702,-4.517,100.000,148325.000,1.000
6.291,2.792,6.840,-2.829,2.490,3.072,-0.699,4.296,0.028,0.989,0.053,1.038,-0.580,-4.333,100.000,148326.000,1.000
4.783,0.560,5.950,-3.811,0.260,0.619,-3.852,1.776,0.024,0.992,0.050,1.129,-0.549,-4.150,100.000,148327.000,1.000
2.494,-1.909,3.093,-5.635,-3.657,-1.497,-6.417,-1.693,0.018,0.993,0.051,1.373,-0.519,-4.181,100.000,148328.000,1.000
0.285,-3.330,-0.129,-7.429,-7.143,-2.186,-7.063,-4.347,0.009,0.996,0.051,1.648,-0.549,-4.272,100.000,148329.000,1.000
-0.830,-2.664,-1.377,-8.318,-7.597,-1.007,-5.147,-4.633,0.003,1.001,0.050,1.709,-0.641,-4.486,100.000,148330.000,1.000
-0.956,-0.618,-0.491,-8.225,-5.125,1.560,-1.485,-2.613,-0.003,1.003,0.050,1.740,-0.854,-4.730,100.000,148331.000,1.000
-0.777,1.347,0.935,-7.545,-1.930,4.753,2.532,0.561,-0.008,1.007,0.050,1.678,-1.160,-5.035,100.000,148332.000,1.000
-0.481,2.666,1.982,-6.589,0.564,7.990,6.039,3.904,-0.011,1.009,0.049,1.709,-1.648,-5.249,100.000,148333.000,1.000
0.139,3.609,2.916,-5.562,2.462,10.733,8.812,7.018,-0.009,1.010,0.048,1.709,-1.953,-5.646,100.000,148334.000,1.000
1.000,4.416,4.171,-4.802,4.356,12.380,10.796,9.740,-0.007,1.010,0.043,1.678,-2.289,-5.829,100.000,148335.000,1.000
1.126,4.400,4.679,-4.969,5.228,12.273,11.335,11.234,-0.006,1.006,0.044,1.587,-2.533,-5.859,100.000,148336.000,1.000
-0.313,2.919,2.941,-6.456,3.528,10.325,9.663,10.501,-0.005,0.996,0.041,1.740,-2.747,-6.104,100.000,148337.000,1.000
-2.905,0.583,-0.829,-8.772,-0.289,7.468,6.099,7.743,-0.001,0.992,0.040,2.014,-2.991,-6.165,100.000,148338.000,1.000
-5.361,-1.115,-4.763,-10.765,-3.808,5.297,2.310,4.525,0.002,0.990,0.036,2.197,-3.082,-6.134,100.000,148339.000,1.000
-6.540,-0.943,-6.824,-11.408,-4.535,5.149,0.310,2.578,0.003,0.991,0.036,2.319,-3.235,-6.134,100.000,148340.000,1.000
-6.631,0.619,-7.102,-10.692,-2.682,6.906,0.661,2.207,0.007,0.996,0.034,2.686,-3.296,-6.165,100.000,148341.000,1.000
-6.709,1.968,-7.380,-9.457,-0.463,8.988,2.180,2.488,0.008,1.002,0.035,2.655,-3.265,-5.951,100.000,148342.000,1.000
-7.598,1.941,-8.946,-8.609,0.576,9.534,3.168,2.491,0.010,1.006,0.036,2.747,-3.235,-5.768,100.000,148343.000,1.000
-9.450,0.340,-11.745,-8.663,0.303,7.588,2.520,1.812,0.013,1.009,0.035,2.716,-3.174,-5.615,100.000,148344.000,1.000
-11.819,-2.250,-14.585,-9.677,-0.614,3.540,0.057,0.400,0.015,1.011,0.033,2.686,-3.021,-5.280,100.000,148345.000,1.000
-14.283,-5.357,-16.688,-11.500,-2.390,-1.428,-3.942,-1.954,0.012,1.014,0.035,2.625,-2.991,-4.974,100.000,148346.000,1.000
-16.276,-8.376,-17.761,-13.587,-5.385,-5.774,-8.491,-5.041,0.012,1.017,0.031,2.502,-2.686,-4.761,100.000,148347.000,1.000
-16.957,-10.237,-17.279,-14.986,-8.581,-8.020,-11.882,-7.781,0.008,1.021,0.035,2.472,-2.594,-4.517,100.000,148348.000,1.000
-15.816,-10.133,-14.921,-14.937,-10.337,-7.430,-12.810,-9.047,0.002,1.024,0.037,2.197,-2.655,-4.517,100.000,148349.000,1.000
-13.025,-7.973,-10.913,-13.222,-9.510,-4.198,-11.014,-8.392,-0.003,1.024,0.038,1.831,-2.594,-4.333,100.000,148350.000,1.000
-9.452,-4.505,-6.420,-10.015,-6.502,0.928,-6.941,-6.129,-0.008,1.022,0.038,1.678,-2.655,-4.303,100.000,148351.000,1.000
-5.853,-0.462,-2.515,-5.535,-2.261,7.156,-1.074,-2.697,-0.011,1.021,0.038,1.556,-2.655,-4.242,100.000,148352.000,1.000
-2.766,3.550,0.372,-0.433,2.400,13.244,5.652,1.285,-0.014,1.017,0.041,1.404,-2.899,-4.272,100.000,148353.000,1.000
-1.003,6.419,1.593,3.883,6.033,17.213,11.286,4.601,-0.015,1.012,0.041,1.282,-3.113,-4.425,100.000,148354.000,1.000
-0.978,7.358,0.757,6.179,7.454,17.712,14.051,6.183,-0.017,1.011,0.040,1.129,-3.296,-4.303,100.000,148355.000,1.000
-2.099,6.752,-1.708,6.368,6.538,15.440,13.755,5.958,-0.020,1.005,0.037,1.068,-3.540,-4.089,100.000,148356.000,1.000
-2.902,6.200,-4.165,5.597,4.754,12.839,12.031,5.086,-0.024,0.997,0.039,1.038,-3.662,-3.998,100.000,148357.000,1.000
-2.168,7.280,-4.641,5.365,4.178,12.069,10.861,5.018,-0.025,0.990,0.039,1.068,-3.937,-4.028,100.000,148358.000,1.000
0.267,10.332,-2.462,6.666,5.532,13.611,11.077,6.364,-0.028,0.981,0.040,1.190,-4.242,-3.967,100.000,148359.000,1.000
3.889,14.764,1.822,9.743,8.265,16.709,12.493,8.949,-0.025,0.976,0.042,1.343,-4.578,-3.876,100.000,148360.000,1.000
7.660,19.193,6.630,13.777,10.828,19.988,14.217,11.878,-0.023,0.975,0.041,1.556,-4.730,-3.571,100.000,148361.000,1.000
10.484,22.068,10.306,17.076,11.912,21.950,15.060,13.846,-0.020,0.973,0.039,1.740,-4.822,-3.479,100.000,148362.000,1.000
11.723,22.483,11.996,17.992,11.333,21.679,14.158,13.779,-0.016,0.970,0.040,1.862,-5.127,-3.113,100.000,148363.000,1.000
11.348,20.444,11.432,15.909,9.324,19.339,11.459,11.356,-0.010,0.967,0.042,2.075,-5.249,-2.808,100.000,148364.000,1.000
9.897,16.826,9.033,11.519,6.384,15.901,7.776,7.234,-0.002,0.966,0.042,2.228,-5.371,-2.380,100.000,148365.000,1.000
7.886,12.558,5.523,6.192,2.846,12.360,4.124,2.577,0.006,0.969,0.039,2.380,-5.280,-1.984,100.000,148366.000,1.000
5.971,8.651,2.259,1.519,-0.455,9.589,1.551,-1.099,0.012,0.972,0.040,2.502,-5.005,-1.740,100.000,148367.000,1.000
4.858,6.050,0.794,-1.298,-2.260,8.169,0.800,-2.532,0.018,0.972,0.040,2.655,-4.791,-1.404,100.000,148368.000,1.000
4.523,4.780,1.292,-2.200,-2.494,7.882,1.538,-1.776,0.019,0.976,0.036,2.625,-4.425,-1.099,100.000,148369.000,1.000
4.280,4.141,2.743,-2.159,-2.016,7.873,2.635,-0.042,0.019,0.978,0.034,2.686,-4.120,-0.702,100.000,148370.000,1.000
3.439,3.394,3.896,-2.289,-1.687,7.430,3.195,1.365,0.019,0.983,0.037,2.655,-3.632,-0.702,100.000,148371.000,1.000
2.333,2.850,4.649,-2.794,-1.053,6.801,3.480,2.226,0.016,0.990,0.034,2.625,-3.387,-0.732,100.000,148372.000,1.000
1.961,3.536,5.891,-3.132,0.970,6.812,4.277,3.063,0.013,0.997,0.033,2.533,-3.143,-0.763,100.000,148373.000,1.000
2.602,5.612,7.693,-3.050,3.919,7.720,5.563,3.903,0.013,1.002,0.036,2.350,-2.899,-0.916,100.000,148374.000,1.000
3.753,8.270,9.368,-2.797,6.481,9.006,6.603,4.265,0.010,1.004,0.035,2.228,-2.502,-1.251,100.000,148375.000,1.000
4.669,10.346,10.187,-2.757,7.793,9.848,6.628,3.679,0.005,1.010,0.033,2.167,-2.136,-1.526,100.000,148376.000,1.000
5.017,11.308,10.276,-3.075,8.304,9.753,5.504,2.227,0.003,1.014,0.033,1.770,-2.167,-1.801,100.000,148377.000,1.000
4.796,11.445,10.385,-3.763,8.985,8.799,3.826,0.462,0.000,1.015,0.031,1.434,-2.167,-2.350,100.000,148378.000,1.000
3.869,11.143,10.599,-4.846,9.810,7.521,2.532,-0.986,0.000,1.016,0.029,1.282,-1.984,-2.594,100.000,148379.000,1.000
2.302,10.781,10.616,-6.090,10.482,6.636,2.565,-1.381,-0.006,1.018,0.030,1.129,-1.984,-2.991,100.000,148380.000,1.000
0.552,10.511,10.127,-7.021,10.923,6.433,4.076,-0.355,-0.008,1.018,0.027,0.946,-1.892,-3.479,100.000,148381.000,1.000
-0.431,10.529,9.552,-7.048,11.755,6.798,6.373,1.913,-0.007,1.014,0.024,0.854,-1.892,-4.028,100.000,148382.000,1.000
0.166,11.094,9.886,-5.820,13.833,7.623,8.573,4.859,-0.007,1.014,0.027,0.702,-1.892,-4.364,100.000,148383.000,1.000
2.070,11.975,11.216,-3.666,16.705,8.811,10.018,7.575,-0.007,1.009,0.027,0.702,-1.892,-4.517,100.000,148384.000,1.000
4.006,12.516,12.543,-1.583,18.915,10.035,10.426,9.084,-0.006,1.006,0.026,0.854,-1.831,-4.791,100.000,148385.000,1.000
4.254,11.669,12.159,-0.929,18.616,10.413,9.513,8.467,-0.004,1.003,0.021,1.068,-1.770,-4.883,100.000,148386.000,1.000
2.032,9.003,9.254,-2.483,15.236,9.106,7.247,5.568,-0.001,1.004,0.017,1.312,-1.709,-5.005,100.000,148387.000,1.000
-1.635,5.520,5.056,-5.585,10.417,6.378,4.318,1.526,-0.001,1.000,0.016,1.434,-1.495,-5.066,100.000,148388.000,1.000
-4.760,2.876,1.682,-8.460,6.474,3.617,1.780,-1.843,-0.003,0.997,0.016,1.648,-1.465,-4.913,100.000,148389.000,1.000
-5.854,2.292,0.794,-9.474,5.005,2.210,0.377,-3.118,-0.003,0.992,0.013,1.862,-1.190,-4.761,100.000,148390.000,1.000
-4.948,3.686,2.461,-8.282,5.866,2.490,0.089,-2.147,-0.002,0.986,0.010,2.228,-1.221,-4.761,100.000,148391.000,1.000
-2.995,6.210,5.679,-5.662,8.098,3.928,0.589,0.279,-0.003,0.979,0.012,2.655,-1.099,-4.578,100.000,148392.000,1.000
-1.099,8.821,9.147,-2.827,10.779,5.686,1.549,3.003,-0.004,0.978,0.009,3.052,-1.160,-4.395,100.000,148393.000,1.000
-0.283,10.327,11.298,-0.855,12.602,6.965,2.531,4.896,-0.005,0.977,0.011,3.571,-1.068,-4.181,100.000,148394.000,1.000
-0.904,10.125,11.280,-0.197,12.749,7.410,3.321,5.603,-0.007,0.979,0.006,3.876,-0.854,-4.059,100.000,148395.000,1.000
-2.505,8.491,9.277,-0.608,11.312,7.214,4.091,5.674,-0.007,0.982,0.006,4.211,-0.946,-3.967,100.000,148396.000,1.000
-3.880,6.525,6.622,-1.294,9.487,6.989,5.295,6.102,-0.011,0.985,0.005,4.395,-0.854,-3.784,100.000,148397.000,1.000
-3.990,5.164,4.903,-1.595,8.402,7.085,6.870,7.114,-0.011,0.986,0.002,4.547,-0.824,-3.632,100.000,148398.000,1.000
-2.970,4.197,4.361,-1.624,7.475,7.020,7.752,7.564,-0.014,0.990,0.000,4.639,-0.854,-3.479,100.000,148399.000,1.000
-1.583,3.124,4.442,-1.846,5.778,6.115,7.007,6.370,-0.013,0.991,-0.003,4.700,-0.977,-3.296,100.000,148400.000,1.000
-0.514,1.799,4.550,-2.467,3.238,4.294,4.814,3.738,-0.012,0.993,0.000,4.700,-1.068,-3.174,100.000,148401.000,1.000
0.047,0.494,4.604,-3.280,0.806,2.172,2.366,0.964,-0.012,0.996,-0.002,4.669,-1.099,-3.113,100.000,148402.000,1.000
0.110,-0.664,4.672,-4.162,-0.665,0.253,0.703,-0.926,-0.013,0.998,-0.004,4.669,-1.068,-3.052,100.000,148403.000,1.000
-0.451,-2.052,4.155,-5.319,-1.616,-1.654,-0.202,-2.012,-0.012,0.997,-0.007,4.547,-1.251,-3.021,100.000,148404.000,1.000
-1.444,-3.701,2.692,-6.724,-2.527,-3.902,-0.879,-2.636,-0.011,0.999,-0.009,4.456,-1.251,-2.991,100.000,148405.000,1.000
-2.454,-5.219,0.506,-7.948,-3.399,-6.500,-1.750,-2.836,-0.015,1.000,-0.011,4.303,-1.312,-2.808,100.000,148406.000,1.000
-3.045,-6.062,-1.641,-8.518,-3.832,-9.047,-2.982,-2.573,-0.018,1.001,-0.010,4.089,-1.343,-2.655,100.000,148407.000,1.000
-3.075,-6.044,-2.988,-8.364,-3.601,-11.095,-4.752,-2.339,-0.017,1.001,-0.008,3.876,-1.434,-2.441,100.000,148408.000,1.000
-2.805,-5.602,-3.502,-7.699,-3.217,-12.274,-7.050,-2.937,-0.015,1.002,-0.006,3.693,-1.404,-2.380,100.000,148409.000,1.000
-2.282,-4.888,-3.094,-6.465,-2.670,-11.904,-8.844,-4.173,-0.015,1.004,-0.006,3.418,-1.526,-2.197,100.000,148410.000,1.000
-1.486,-3.772,-1.697,-4.560,-1.599,-9.437,-8.840,-5.002,-0.018,1.009,-0.004,3.052,-1.709,-2.045,100.000,148411.000,1.000
-0.552,-2.214,0.552,-2.317,0.148,-5.358,-7.001,-4.779,-0.018,1.009,-0.004,2.625,-1.801,-1.923,100.000,148412.000,1.000
0.110,-0.610,3.235,-0.534,2.251,-1.367,-4.845,-3.887,-0.019,1.008,-0.008,2.319,-2.106,-1.648,100.000,148413.000,1.000
-0.076,0.197,5.409,0.057,3.755,0.653,-4.203,-3.217,-0.021,1.004,-0.005,1.831,-2.228,-1.465,100.000,148414.000,1.000
-1.185,-0.099,6.523,-0.551,4.205,0.043,-5.727,-3.232,-0.022,1.002,-0.002,1.587,-2.350,-1.282,100.000,148415.000,1.000
-2.843,-1.118,6.491,-1.781,3.611,-2.376,-8.786,-3.963,-0.023,0.998,-0.001,1.343,-2.472,-1.221,100.000,148416.000,1.000
-4.288,-1.921,5.835,-2.776,2.700,-4.809,-11.764,-4.830,-0.025,0.995,-0.004,1.129,-2.594,-0.946,100.000,148417.000,1.000
-4.581,-1.522,5.582,-2.669,2.880,-5.476,-12.722,-4.697,-0.027,0.993,-0.007,0.977,-2.747,-0.580,100.000,148418.000,1.000
-3.303,0.171,6.216,-1.083,4.801,-3.788,-10.706,-2.854,-0.027,0.993,-0.007,0.793,-2.869,-0.458,100.000,148419.000,1.000
-0.861,2.373,7.538,1.470,7.955,-0.762,-6.533,0.232,-0.028,0.993,-0.009,0.732,-3.174,-0.183,100.000,148420.000,1.000
1.537,3.789,8.590,3.675,10.555,1.652,-2.538,2.936,-0.032,0.991,-0.010,0.793,-3.357,-0.092,100.000,148421.000,1.000
2.936,3.729,8.608,4.470,11.048,2.134,-0.785,3.810,-0.032,0.990,-0.011,0.732,-3.815,0.122,100.000,148422.000,1.000
3.277,2.548,7.739,3.841,9.456,0.822,-1.629,2.659,-0.031,0.990,-0.011,0.671,-4.120,0.427,100.000,148423.000,1.000
2.899,0.889,6.322,2.484,6.723,-1.263,-4.071,0.232,-0.027,0.988,-0.010,0.671,-4.272,0.580,100.000,148424.000,1.000
2.122,-0.593,4.802,1.101,4.271,-3.139,-6.773,-2.489,-0.025,0.987,-0.008,0.702,-4.639,0.824,100.000,148425.000,1.000
0.887,-1.672,3.357,-0.037,2.842,-4.492,-8.946,-4.918,-0.020,0.984,-0.008,0.671,-4.913,1.129,100.000,148426.000,1.000
-0.846,-2.393,2.195,-0.756,2.499,-5.456,-10.247,-6.635,-0.015,0.986,-0.007,0.763,-5.005,1.373,100.000,148427.000,1.000
-2.813,-2.841,1.737,-0.801,3.117,-6.099,-10.524,-7.233,-0.009,0.985,-0.010,0.824,-4.974,1.648,100.000,148428.000,1.000
-4.592,-3.157,2.015,-0.061,4.172,-6.173,-9.739,-6.549,-0.001,0.988,-0.004,0.824,-5.035,1.831,100.000,148429.000,1.000
-5.508,-3.087,2.978,1.323,5.462,-5.249,-7.819,-4.595,0.001,0.990,-0.005,0.763,-4.944,1.953,100.000,148430.000,1.000
-5.211,-2.525,4.169,2.709,6.693,-3.534,-5.374,-2.057,0.005,0.990,-0.007,0.763,-4.761,2.106,100.000,148431.000,1.000
-3.833,-1.746,5.028,3.318,7.556,-1.929,-3.687,-0.143,0.013,0.992,-0.010,0.854,-4.608,2.289,100.000,148432.000,1.000
-1.781,-1.158,5.392,2.915,8.023,-1.219,-3.559,0.348,0.019,0.994,-0.011,0.885,-4.395,2.411,100.000,148433.000,1.000
0.272,-1.231,5.043,1.823,7.757,-1.642,-4.879,-0.623,0.025,1.000,-0.012,0.732,-4.150,2.533,100.000,148434.000,1.000
1.607,-2.120,3.883,0.478,6.593,-3.048,-7.152,-2.548,0.028,1.006,-0.009,0.641,-3.693,2.502,100.000,148435.000,1.000
1.401,-3.931,1.669,-1.039,4.408,-5.232,-10.140,-5.000,0.035,1.016,-0.005,0.305,-3.052,2.655,100.000,148436.000,1.000
-0.644,-6.566,-1.589,-2.783,1.390,-7.726,-13.461,-7.633,0.039,1.020,-0.004,0.031,-2.411,2.502,100.000,148437.000,1.000
-3.850,-9.600,-5.258,-4.690,-1.957,-9.799,-16.344,-10.081,0.044,1.025,-0.007,-0.214,-1.953,2.472,100.000,148438.000,1.000
-7.088,-12.699,-8.690,-6.636,-5.518,-10.982,-18.183,-12.127,0.050,1.028,-0.005,-0.580,-1.282,2.319,100.000,148439.000,1.000
-9.335,-15.414,-11.076,-8.345,-8.783,-11.246,-18.721,-13.484,0.052,1.031,-0.005,-1.068,-0.732,2.228,100.000,148440.000,1.000
-10.365,-17.364,-11.937,-9.424,-11.018,-10.974,-18.102,-13.811,0.060,1.032,-0.005,-1.495,0.031,2.136,100.000,148441.000,1.000
-10.564,-18.245,-11.270,-9.456,-11.637,-10.650,-16.607,-12.698,0.064,1.033,-0.002,-1.862,0.793,2.075,100.000,148442.000,1.000
-10.410,-17.996,-9.524,-8.343,-10.620,-10.556,-14.496,-10.002,0.069,1.032,0.001,-2.350,1.587,1.953,100.000,148443.000,1.000
-10.204,-17.092,-7.805,-6.515,-8.921,-10.720,-12.177,-6.420,0.071,1.033,0.000,-2.686,2.380,1.801,100.000,148444.000,1.000
-9.754,-15.967,-6.849,-4.584,-7.229,-10.961,-10.064,-3.152,0.070,1.031,0.001,-3.204,3.265,1.587,100.000,148445.000,1.000
-8.910,-15.000,-6.888,-3.088,-5.818,-11.163,-8.565,-1.257,0.067,1.026,0.004,-3.662,3.998,1.373,100.000,148446.000,1.000
-7.768,-14.223,-7.677,-2.161,-4.505,-11.068,-7.625,-0.821,0.062,1.022,0.004,-4.059,4.852,0.977,100.000,148447.000,1.000
-6.549,-13.216,-8.690,-1.512,-2.832,-10.116,-6.641,-1.092,0.055,1.019,0.005,-4.242,5.585,0.519,100.000,148448.000,1.000
-5.618,-11.793,-9.816,-0.867,-1.055,-8.097,-5.337,-1.466,0.047,1.016,0.007,-4.608,6.165,0.061,100.000,148449.000,1.000
-5.085,-10.050,-10.808,-0.090,0.392,-5.694,-4.118,-1.587,0.040,1.014,0.007,-4.730,6.683,-0.519,100.000,148450.000,1.000
-4.796,-8.418,-11.408,0.924,1.046,-4.183,-3.633,-1.108,0.033,1.008,0.006,-4.913,6.989,-1.099,100.000,148451.000,1.000
-4.374,-7.284,-11.527,2.393,0.808,-4.387,-3.956,0.311,0.026,1.002,0.008,-5.066,7.233,-1.801,100.000,148452.000,1.000
-3.611,-6.971,-11.417,4.322,-0.136,-6.258,-4.809,2.280,0.017,0.999,0.010,-5.066,7.385,-2.380,100.000,148453.000,1.000
-2.764,-7.925,-11.864,6.212,-2.099,-9.243,-6.195,3.320,0.010,0.995,0.006,-4.944,7.294,-2.991,100.000,148454.000,1.000
-2.021,-9.920,-13.008,7.488,-4.939,-12.389,-7.879,2.266,0.007,0.992,0.006,-4.639,7.172,-3.601,100.000,148455.000,1.000
-1.554,-12.111,-14.351,7.882,-7.974,-14.636,-9.077,-0.549,0.002,0.988,0.010,-4.425,7.019,-4.150,100.000,148456.000,1.000
-1.486,-13.574,-15.281,7.614,-10.261,-15.259,-8.914,-3.505,0.000,0.986,0.008,-4.150,6.775,-4.730,100.000,148457.000,1.000
-1.692,-13.932,-15.593,7.175,-11.179,-14.222,-7.288,-5.226,-0.002,0.982,0.005,-3.845,6.470,-5.157,100.000,148458.000,1.000
-1.867,-13.609,-15.874,6.962,-11.228,-12.139,-5.062,-5.687,-0.003,0.981,0.003,-3.387,6.256,-5.585,100.000,148459.000,1.000
-1.489,-12.906,-16.361,7.348,-10.909,-9.736,-3.023,-5.387,-0.005,0.979,0.004,-3.052,5.981,-5.890,100.000,148460.000,1.000
-0.277,-11.770,-16.717,8.580,-10.375,-7.551,-1.376,-4.488,-0.007,0.979,0.003,-2.686,5.676,-5.981,100.000,148461.000,1.000
1.763,-9.984,-16.237,10.625,-9.372,-5.871,0.073,-2.814,-0.007,0.978,0.001,-2.319,5.463,-6.104,100.000,148462.000,1.000
4.323,-7.762,-14.449,13.005,-7.684,-4.961,1.389,-0.612,-0.008,0.977,0.001,-1.831,5.127,-6.165,100.000,148463.000,1.000
6.678,-6.107,-11.924,14.953,-5.967,-5.014,2.397,1.211,-0.009,0.977,0.000,-1.617,4.913,-6.226,100.000,148464.000,1.000
8.284,-5.579,-9.299,16.041,-4.570,-5.465,3.425,2.238,-0.009,0.974,0.000,-1.190,4.761,-6.165,100.000,148465.000,1.000
8.878,-5.777,-6.899,16.290,-3.338,-5.157,5.089,2.887,-0.008,0.972,-0.002,-0.732,4.425,-5.981,100.000,148466.000,1.000
8.486,-5.822,-4.842,15.845,-2.080,-3.432,7.411,3.638,-0.010,0.970,-0.002,-0.427,4.242,-5.859,100.000,148467.000,1.000
7.256,-5.483,-3.427,14.627,-1.177,-1.030,9.339,4.127,-0.013,0.968,0.001,-0.122,3.784,-5.737,100.000,148468.000,1.000
5.202,-5.749,-3.563,12.434,-1.942,0.264,9.262,3.279,-0.015,0.968,0.006,0.092,3.510,-5.554,100.000,148469.000,1.000
2.648,-7.409,-5.585,9.595,-4.857,-0.815,6.479,0.723,-0.019,0.968,0.006,0.244,3.296,-5.493,100.000,148470.000,1.000
0.252,-10.046,-8.814,7.032,-8.987,-3.947,1.897,-2.578,-0.022,0.969,0.006,0.397,3.021,-5.432,100.000,148471.000,1.000
-1.089,-12.059,-11.687,5.763,-12.344,-7.343,-2.278,-4.825,-0.022,0.973,0.002,0.549,2.777,-5.402,100.000,148472.000,1.000
-0.747,-11.999,-12.689,6.138,-13.256,-9.142,-3.966,-4.696,-0.024,0.981,0.003,0.610,2.411,-5.188,100.000,148473.000,1.000
0.903,-10.133,-11.854,7.426,-12.219,-8.972,-2.838,-2.453,-0.025,0.987,0.003,0.549,2.136,-4.974,100.000,148474.000,1.000
2.744,-7.966,-10.328,8.298,-11.114,-7.999,-0.328,0.391,-0.025,0.990,0.004,0.397,1.831,-4.944,100.000,148475.000,1.000
3.334,-7.228,-9.702,7.445,-12.018,-7.931,1.241,1.755,-0.025,0.991,0.001,0.061,1.465,-4.791,100.000,148476.000,1.000
1.711,-8.867,-10.974,4.266,-15.755,-9.975,-0.063,0.102,-0.023,0.991,0.004,-0.183,1.160,-4.761,100.000,148477.000,1.000
-2.214,-12.896,-14.019,-0.855,-21.464,-14.505,-4.979,-4.764,-0.024,0.987,0.000,-0.275,0.824,-4.669,100.000,148478.000,1.000
-7.854,-18.797,-18.305,-6.699,-27.794,-20.961,-12.783,-11.698,-0.024,0.984,0.000,-0.336,0.610,-4.456,100.000,148479.000,1.000
-13.800,-25.033,-22.704,-11.433,-32.878,-27.480,-20.908,-18.255,-0.025,0.979,0.004,-0.427,0.610,-4.456,100.000,148480.000,1.000
-18.466,-29.571,-25.958,-13.482,-35.122,-31.666,-26.038,-21.798,-0.027,0.978,0.003,-0.244,0.488,-4.272,100.000,148481.000,1.000
-20.833,-30.891,-27.114,-12.407,-33.794,-32.013,-26.087,-21.020,-0.029,0.976,0.001,-0.244,0.122,-4.150,100.000,148482.000,1.000
-20.827,-28.768,-25.867,-9.110,-29.143,-28.638,-21.430,-16.756,-0.035,0.974,-0.003,-0.153,-0.031,-4.059,100.000,148483.000,1.000
-19.194,-24.445,-23.081,-5.169,-22.685,-22.901,-14.455,-11.344,-0.040,0.970,-0.001,0.092,-0.305,-3.998,100.000,148484.000,1.000
-16.607,-19.397,-19.733,-1.736,-15.969,-16.337,-7.670,-6.731,-0.043,0.967,-0.001,0.275,-0.549,-4.089,100.000,148485.000,1.000
-13.486,-14.684,-16.465,0.801,-10.229,-10.077,-2.531,-3.610,-0.046,0.964,-0.007,0.549,-0.916,-3.906,100.000,148486.000,1.000
-10.077,-10.658,-13.423,2.671,-6.000,-4.621,0.905,-1.558,-0.049,0.965,-0.006,0.977,-1.221,-3.876,100.000,148487.000,1.000
-6.701,-7.208,-10.429,4.273,-3.051,-0.037,3.501,0.243,-0.050,0.972,-0.009,1.221,-1.465,-3.754,100.000,148488.000,1.000
-3.901,-4.328,-7.611,5.741,-1.203,3.699,6.060,2.224,-0.048,0.979,-0.014,1.465,-1.831,-3.632,100.000,148489.000,1.000
-1.768,-1.654,-4.753,7.147,0.201,6.891,9.046,4.563,-0.047,0.983,-0.016,1.648,-2.197,-3.540,100.000,148490.000,1.000
-0.022,1.284,-1.610,8.524,1.697,9.891,12.304,7.099,-0.046,0.989,-0.020,1.617,-2.594,-3.387,100.000,148491.000,1.000
1.563,4.583,1.638,9.665,3.102,12.510,15.005,9.237,-0.042,0.994,-0.019,1.617,-2.869,-3.204,100.000,148492.000,1.000
2.841,7.754,4.466,10.036,3.699,13.841,15.991,10.143,-0.039,0.997,-0.021,1.648,-3.082,-3.021,100.000,148493.000,1.000
3.190,9.672,5.931,8.933,2.330,12.757,14.328,9.069,-0.036,0.994,-0.019,1.465,-3.235,-2.747,100.000,148494.000,1.000
2.012,9.230,5.304,5.826,-1.621,8.574,9.832,5.754,-0.032,0.999,-0.022,1.404,-3.479,-2.472,100.000,148495.000,1.000
-1.041,5.584,1.963,0.543,-8.407,1.105,2.790,0.149,-0.025,1.000,-0.026,1.221,-3.479,-2.197,100.000,148496.000,1.000
-5.487,-0.966,-3.864,-6.164,-17.326,-8.926,-5.867,-7.216,-0.022,1.004,-0.026,1.068,-3.296,-1.801,100.000,148497.000,1.000
-9.822,-8.390,-10.231,-12.430,-26.010,-19.428,-14.239,-14.644,-0.018,1.007,-0.026,0.824,-3.357,-1.434,100.000,148498.000,1.000
-12.323,-13.977,-14.526,-16.155,-31.669,-27.519,-20.061,-19.817,-0.014,1.009,-0.023,0.488,-3.143,-1.129,100.000,148499.000,1.000
-11.792,-15.709,-14.776,-16.199,-32.261,-30.921,-21.735,-20.986,-0.008,1.008,-0.022,0.061,-2.930,-0.702,100.000,148500.000,1.000
-8.470,-13.783,-11.332,-13.204,-28.153,-29.458,-19.555,-18.407,-0.004,1.009,-0.021,-0.305,-2.747,-0.366,100.000,148501.000,1.000
-3.882,-10.236,-6.577,-9.127,-21.751,-24.975,-15.405,-14.046,0.000,1.008,-0.019,-0.824,-2.411,0.031,100.000,148502.000,1.000
0.002,-7.260,-3.066,-5.999,-15.657,-19.898,-11.215,-9.923,0.003,1.008,-0.014,-1.312,-2.014,0.427,100.000,148503.000,1.000
1.505,-6.148,-2.385,-4.994,-11.843,-15.964,-8.109,-7.213,0.005,1.009,-0.014,-1.831,-1.556,0.580,100.000,148504.000,1.000
0.325,-6.684,-4.140,-5.961,-10.622,-13.571,-6.243,-6.114,0.005,1.012,-0.012,-2.319,-1.282,0.763,100.000,148505.000,1.000
-2.375,-7.900,-6.766,-7.804,-11.174,-12.180,-5.270,-6.280,0.005,1.015,-0.010,-2.808,-0.824,0.916,100.000,148506.000,1.000
-4.719,-8.784,-8.644,-9.238,-12.241,-11.152,-4.718,-7.021,0.006,1.016,-0.011,-3.448,-0.397,0.854,100.000,148507.000,1.000
-5.412,-8.615,-8.816,-9.564,-12.772,-10.364,-4.508,-7.691,0.005,1.014,-0.008,-3.937,-0.153,0.793,100.000,148508.000,1.000
-4.536,-7.307,-7.560,-8.928,-12.786,-10.154,-5.192,-8.203,0.006,1.011,-0.007,-4.395,0.305,0.824,100.000,148509.000,1.000
-2.782,-5.049,-5.442,-7.736,-12.382,-10.500,-6.989,-8.691,0.008,1.006,-0.006,-4.944,0.580,0.824,100.000,148510.000,1.000
-0.857,-2.499,-3.097,-6.270,-11.603,-10.771,-9.232,-9.300,0.006,1.004,-0.003,-5.249,0.885,0.671,100.000,148511.000,1.000
0.781,-0.486,-1.085,-4.637,-10.448,-10.020,-10.555,-9.857,0.004,1.000,-0.004,-5.463,1.190,0.305,100.000,148512.000,1.000
1.803,0.570,0.324,-3.005,-8.857,-7.583,-9.726,-9.822,0.002,0.996,0.000,-5.676,1.404,-0.031,100.000,148513.000,1.000
1.848,0.655,0.762,-1.807,-7.324,-3.701,-6.708,-8.921,0.000,0.993,-0.002,-5.829,1.587,-0.336,100.000,148514.000,1.000
1.099,0.353,0.323,-1.384,-6.176,0.604,-2.643,-7.394,-0.003,0.990,0.000,-5.920,1.740,-0.671,100.000,148515.000,1.000
0.180,0.175,-0.676,-1.738,-5.731,4.104,0.842,-5.975,-0.005,0.983,0.001,-5.859,1.831,-1.038,100.000,148516.000,1.000
-0.194,0.297,-1.777,-2.448,-6.175,6.002,2.625,-5.212,-0.004,0.980,-0.002,-5.859,2.014,-1.282,100.000,148517.000,1.000
0.422,0.859,-2.266,-2.939,-7.213,6.066,2.452,-5.028,-0.005,0.979,-0.004,-5.737,1.984,-1.495,100.000,148518.000,1.000
1.858,1.857,-1.788,-2.903,-8.575,4.541,0.709,-5.053,-0.007,0.977,-0.004,-5.615,2.197,-1.648,100.000,148519.000,1.000
3.582,3.240,-0.227,-2.348,-9.643,2.212,-1.607,-4.790,-0.007,0.975,-0.003,-5.371,2.258,-1.923,100.000,148520.000,1.000
4.767,4.460,1.922,-1.643,-10.147,-0.063,-3.508,-4.063,-0.009,0.974,0.001,-5.188,2.167,-1.984,100.000,148521.000,1.000
4.930,4.998,3.985,-1.176,-10.119,-1.574,-4.327,-2.953,-0.013,0.975,0.000,-5.035,2.136,-2.167,100.000,148522.000,1.000
4.453,5.158,5.845,-0.922,-9.249,-1.687,-3.569,-1.419,-0.015,0.976,-0.003,-4.944,2.136,-2.258,100.000,148523.000,1.000
4.055,5.594,7.475,-0.563,-7.490,-0.203,-1.219,0.515,-0.015,0.974,-0.002,-4.761,2.197,-2.441,100.000,148524.000,1.000
4.244,6.736,9.008,0.108,-5.001,2.303,2.037,2.527,-0.017,0.978,0.000,-4.578,2.045,-2.472,100.000,148525.000,1.000
4.759,8.107,10.291,0.780,-2.646,4.548,4.787,3.766,-0.020,0.981,0.001,-4.517,1.862,-2.533,100.000,148526.000,1.000
5.027,8.914,11.095,0.999,-1.350,5.514,5.900,3.623,-0.022,0.986,0.001,-4.395,1.801,-2.563,100.000,148527.000,1.000
4.930,9.099,11.734,0.738,-0.986,5.425,5.629,2.652,-0.023,0.988,0.004,-4.364,1.648,-2.655,100.000,148528.000,1.000
4.840,9.256,12.612,0.361,-0.912,5.422,5.297,2.174,-0.024,0.993,0.005,-4.425,1.556,-2.808,100.000,148529.000,1.000
5.377,10.085,14.072,0.290,-0.297,6.405,6.091,3.161,-0.025,0.995,0.005,-4.547,1.373,-2.838,100.000,148530.000,1.000
6.587,11.340,15.621,0.487,0.808,8.125,7.866,5.207,-0.027,0.998,0.007,-4.700,1.129,-2.747,100.000,148531.000,1.000
7.929,12.114,16.230,0.526,1.693,9.705,9.649,7.110,-0.025,1.001,0.010,-4.852,0.946,-2.625,100.000,148532.000,1.000
8.878,11.881,15.386,-0.012,2.022,10.594,10.827,8.064,-0.025,1.005,0.011,-5.035,0.641,-2.655,100.000,148533.000,1.000
9.151,10.632,13.171,-1.307,1.719,10.727,11.319,7.981,-0.026,1.007,0.013,-5.341,0.366,-2.594,100.000,148534.000,1.000
8.968,8.918,10.548,-3.093,1.312,10.341,11.317,7.374,-0.026,1.006,0.015,-5.646,0.153,-2.472,100.000,148535.000,1.000
8.585,7.205,8.425,-4.903,1.059,9.749,10.841,6.613,-0.025,1.005,0.022,-5.951,-0.122,-2.350,100.000,148536.000,1.000
8.021,5.661,6.970,-6.325,0.638,9.274,9.813,5.672,-0.026,1.008,0.022,-6.165,-0.305,-2.289,100.000,148537.000,1.000
7.199,4.360,5.907,-7.113,-0.159,9.057,8.327,4.521,-0.025,1.011,0.021,-6.348,-0.366,-2.258,100.000,148538.000,1.000
6.147,3.341,4.863,-7.133,-1.128,9.074,6.848,3.512,-0.026,1.017,0.022,-6.714,-0.519,-2.197,100.000,148539.000,1.000
5.341,3.015,4.237,-6.151,-1.093,9.522,6.374,3.556,-0.026,1.023,0.022,-6.866,-0.702,-2.136,100.000,148540.000,1.000
5.042,3.422,4.367,-4.221,0.452,10.383,7.307,5.001,-0.027,1.029,0.024,-7.172,-0.854,-2.045,100.000,148541.000,1.000
4.973,3.963,4.867,-1.926,2.429,11.104,8.698,6.945,-0.027,1.031,0.026,-7.446,-1.099,-1.984,100.000,148542.000,1.000
4.787,4.084,5.155,0.006,3.413,11.257,9.147,8.062,-0.027,1.031,0.028,-7.721,-1.373,-1.984,100.000,148543.000,1.000
4.474,3.773,4.867,1.257,2.803,11.217,8.178,7.787,-0.028,1.031,0.030,-7.812,-1.465,-1.862,100.000,148544.000,1.000
4.624,3.976,4.668,2.255,1.775,12.106,6.898,6.990,-0.027,1.029,0.033,-8.057,-1.678,-1.862,100.000,148545.000,1.000
5.619,5.612,5.369,3.657,1.745,14.723,6.869,7.038,-0.027,1.024,0.036,-8.240,-1.892,-1.801,100.000,148546.000,1.000
7.280,8.809,7.038,5.696,3.133,18.822,8.789,8.640,-0.027,1.021,0.035,-8.301,-1.892,-1.770,100.000,148547.000,1.000
9.289,13.097,9.213,8.005,5.694,23.454,12.211,11.456,-0.026,1.014,0.035,-8.179,-2.014,-1.740,100.000,148548.000,1.000
11.474,17.680,11.154,9.934,8.726,27.714,16.068,14.480,-0.024,1.009,0.034,-8.087,-2.319,-1.526,100.000,148549.000,1.000
14.001,22.027,12.738,11.185,11.922,31.200,19.597,16.959,-0.024,1.005,0.035,-7.965,-2.441,-1.434,100.000,148550.000,1.000
16.716,25.599,14.069,11.855,14.835,33.704,22.359,18.467,-0.023,1.004,0.039,-7.812,-2.441,-1.373,100.000,148551.000,1.000
19.048,27.891,15.147,12.325,16.798,35.134,24.190,18.982,-0.025,1.000,0.038,-7.629,-2.594,-1.404,100.000,148552.000,1.000
20.529,28.744,16.017,13.057,17.578,35.654,25.277,18.985,-0.022,0.997,0.039,-7.294,-2.686,-1.312,100.000,148553.000,1.000
20.948,28.184,16.431,14.217,17.116,35.446,25.713,18.942,-0.021,0.992,0.042,-6.927,-2.808,-1.129,100.000,148554.000,1.000
20.486,26.691,16.418,15.605,16.014,34.579,25.414,19.115,-0.021,0.991,0.042,-6.622,-2.808,-1.038,100.000,148555.000,1.000
19.385,24.855,16.141,16.755,14.980,33.049,24.343,19.494,-0.017,0.989,0.042,-6.195,-2.808,-1.038,100.000,148556.000,1.000
18.082,23.290,15.921,17.374,14.529,31.111,22.967,20.102,-0.017,0.990,0.042,-5.920,-2.808,-1.007,100.000,148557.000,1.000
17.288,22.569,16.337,17.618,15.002,29.375,22.094,21.081,-0.014,0.989,0.042,-5.524,-2.838,-0.793,100.000,148558.000,1.000
17.449,22.733,17.488,17.868,16.000,28.405,22.168,22.336,-0.014,0.988,0.042,-5.157,-2.838,-0.793,100.000,148559.000,1.000
18.657,23.684,19.327,18.507,17.297,28.416,23.311,23.782,-0.014,0.987,0.041,-4.700,-2.686,-0.580,100.000,148560.000,1.000
20.461,25.177,21.581,19.571,18.899,29.074,25.285,25.413,-0.012,0.987,0.039,-4.364,-2.716,-0.549,100.000,148561.000,1.000
22.182,26.892,23.867,20.739,20.876,29.814,27.457,27.181,-0.012,0.986,0.042,-3.815,-2.747,-0.336,100.000,148562.000,1.000
23.347,28.529,25.879,21.534,23.142,30.291,28.994,28.653,-0.011,0.987,0.039,-3.448,-2.594,-0.336,100.000,148563.000,1.000
23.714,29.624,26.992,21.506,24.780,30.465,29.226,28.988,-0.009,0.989,0.041,-3.113,-2.472,-0.336,100.000,148564.000,1.000
23.515,30.086,27.039,20.583,25.255,30.525,28.287,27.924,-0.009,0.989,0.042,-2.838,-2.594,-0.275,100.000,148565.000,1.000
23.155,30.146,26.347,19.045,24.773,30.573,26.918,26.015,-0.009,0.988,0.038,-2.533,-2.350,-0.244,100.000,148566.000,1.000
23.061,30.286,25.523,17.460,24.110,30.621,25.984,24.231,-0.010,0.987,0.039,-2.136,-2.289,-0.153,100.000,148567.000,1.000
23.447,30.926,25.160,16.386,24.068,30.560,25.890,23.271,-0.008,0.989,0.042,-1.923,-2.258,-0.275,100.000,148568.000,1.000
23.914,31.733,24.984,15.837,24.305,29.984,26.048,22.950,-0.008,0.988,0.042,-1.678,-2.136,-0.122,100.000,148569.000,1.000
23.990,32.131,24.552,15.441,24.229,28.623,25.542,22.700,-0.010,0.989,0.040,-1.526,-2.136,-0.122,100.000,148570.000,1.000
23.483,31.678,23.698,14.868,23.596,26.737,23.942,22.116,-0.012,0.994,0.041,-1.343,-2.197,-0.275,100.000,148571.000,1.000
22.674,30.455,22.808,14.159,22.867,25.022,21.655,21.287,-0.013,0.998,0.041,-1.312,-2.167,-0.366,100.000,148572.000,1.000
22.069,29.082,22.652,13.548,22.886,23.967,19.443,20.560,-0.014,1.002,0.041,-1.221,-2.228,-0.366,100.000,148573.000,1.000
21.746,27.943,23.267,13.082,23.507,23.335,17.684,19.962,-0.016,1.005,0.038,-1.190,-2.319,-0.580,100.000,148574.000,1.000
21.555,27.125,24.284,12.734,24.175,22.619,16.535,19.336,-0.016,1.006,0.039,-1.160,-2.441,-0.641,100.000,148575.000,1.000
21.324,26.300,25.204,12.465,24.356,21.511,15.903,18.418,-0.015,1.005,0.036,-1.190,-2.411,-0.732,100.000,148576.000,1.000
21.116,25.175,25.798,12.294,24.006,20.141,15.555,17.199,-0.016,1.002,0.039,-1.129,-2.533,-0.732,100.000,148577.000,1.000
21.168,23.873,26.264,12.249,23.673,18.957,15.397,16.159,-0.014,0.999,0.037,-1.129,-2.533,-0.763,100.000,148578.000,1.000
21.425,22.447,26.391,12.202,23.346,18.213,15.345,15.742,-0.012,0.996,0.037,-1.038,-2.594,-0.824,100.000,148579.000,1.000
21.727,20.996,25.816,12.020,22.772,17.848,15.361,16.072,-0.014,0.991,0.036,-0.885,-2.716,-0.763,100.000,148580.000,1.000
21.761,19.559,24.126,11.635,21.635,17.591,15.365,16.724,-0.013,0.992,0.037,-0.702,-2.716,-0.793,100.000,148581.000,1.000
21.303,18.314,21.434,11.211,20.161,17.360,15.463,17.184,-0.012,0.990,0.034,-0.549,-2.747,-0.702,100.000,148582.000,1.000
20.488,17.667,18.789,11.169,19.384,17.404,15.991,17.400,-0.012,0.989,0.035,-0.458,-2.716,-0.702,100.000,148583.000,1.000
19.555,17.752,17.073,11.839,19.836,17.962,17.028,17.547,-0.011,0.990,0.032,-0.275,-2.777,-0.641,100.000,148584.000,1.000
18.880,18.685,16.699,13.291,21.530,19.200,18.454,17.931,-0.010,0.987,0.032,-0.183,-2.655,-0.549,100.000,148585.000,1.000
18.747,20.444,17.426,15.289,23.928,21.210,20.144,18.817,-0.009,0.988,0.029,-0.122,-2.625,-0.610,100.000,148586.000,1.000
19.398,22.808,18.832,17.530,26.520,23.939,22.205,20.481,-0.008,0.990,0.024,0.031,-2.441,-0.458,100.000,148587.000,1.000
20.883,25.267,20.663,19.663,29.168,26.762,24.565,22.902,-0.005,0.993,0.023,0.000,-2.319,-0.275,100.000,148588.000,1.000
22.634,26.827,22.224,21.124,31.169,28.375,26.253,25.143,-0.003,0.994,0.022,0.000,-2.350,-0.275,100.000,148589.000,1.000
24.207,26.941,23.090,21.561,31.985,27.941,26.201,26.043,0.001,0.994,0.024,-0.122,-2.228,-0.214,100.000,148590.000,1.000
25.992,25.974,23.432,21.262,31.764,26.030,24.477,25.313,0.001,0.995,0.023,0.000,-2.045,-0.183,100.000,148591.000,1.000
29.355,25.224,24.107,21.213,31.606,24.312,22.602,24.042,0.001,0.996,0.019,-0.061,-1.984,-0.244,100.000,148592.000,1.000
35.811,26.123,26.221,22.456,32.846,24.154,22.161,23.668,0.002,0.997,0.019,-0.122,-1.892,-0.153,100.000,148593.000,1.000
45.789,28.871,29.752,25.229,35.262,25.481,23.117,24.379,0.002,0.994,0.014,-0.183,-1.648,0.061,100.000,148594.000,1.000
58.685,32.789,33.911,29.020,37.830,27.264,24.229,25.313,0.002,0.993,0.013,-0.275,-1.434,-0.031,100.000,148595.000,1.000
73.150,36.881,37.654,32.952,39.665,28.454,24.246,25.469,0.001,0.998,0.016,-0.275,-1.190,-0.092,100.000,148596.000,1.000
87.580,40.316,40.330,36.260,40.657,28.617,22.849,24.565,0.001,0.998,0.018,-0.458,-1.068,-0.092,100.000,148597.000,1.000
100.576,42.727,42.173,38.637,41.396,28.070,20.944,23.319,0.002,1.000,0.018,-0.458,-0.916,-0.275,100.000,148598.000,1.000
111.001,43.951,43.564,40.205,41.945,27.511,19.962,22.780,0.000,1.001,0.016,-0.610,-0.671,-0.336,100.000,148599.000,1.000
118.351,44.249,44.971,41.400,42.302,27.639,21.006,23.726,0.000,1.001,0.015,-0.824,-0.397,-0.458,100.000,148600.000,1.000
122.585,43.953,46.475,42.600,42.506,28.696,24.007,26.081,0.000,0.999,0.018,-0.824,-0.366,-0.549,100.000,148601.000,1.000
124.022,43.423,47.909,43.906,42.727,30.112,27.640,28.915,0.000,0.996,0.018,-0.916,-0.122,-0.580,100.000,148602.000,1.000
123.160,43.045,49.242,44.981,43.176,29.890,29.844,30.799,0.000,0.992,0.016,-1.129,-0.214,-0.641,100.000,148603.000,1.000
120.106,42.648,49.969,45.070,43.249,24.365,28.826,30.344,-0.001,0.991,0.016,-1.251,-0.061,-0.610,100.000,148604.000,1.000
114.709,41.793,49.531,43.540,42.396,10.593,24.477,27.240,-0.001,0.990,0.018,-1.221,0.122,-0.732,100.000,148605.000,1.000
106.772,39.952,47.487,40.202,40.390,-9.927,18.229,22.286,0.000,0.992,0.017,-1.251,0.336,-0.916,100.000,148606.000,1.000
96.639,37.031,43.963,35.560,37.612,-30.386,12.126,16.994,-0.001,0.990,0.018,-1.343,0.336,-0.946,100.000,148607.000,1.000
85.402,33.723,39.964,30.787,35.272,-42.345,8.173,13.070,-0.001,0.989,0.014,-1.373,0.427,-1.007,100.000,148608.000,1.000
74.117,30.797,36.302,27.064,34.204,-40.663,7.634,11.542,-0.003,0.992,0.017,-1.465,0.519,-0.946,100.000,148609.000,1.000
63.318,28.700,33.252,24.894,34.542,-26.141,10.311,12.246,-0.004,0.988,0.017,-1.373,0.580,-0.946,100.000,148610.000,1.000
52.748,27.075,30.273,23.720,35.221,-5.350,14.026,13.568,-0.005,0.989,0.016,-1.343,0.671,-0.977,100.000,148611.000,1.000
41.873,25.190,26.704,22.504,34.800,12.802,15.964,13.500,-0.004,0.989,0.015,-1.434,0.641,-1.038,100.000,148612.000,1.000
30.470,22.631,22.684,20.546,32.847,22.134,14.768,11.176,-0.004,0.988,0.017,-1.434,0.610,-1.038,100.000,148613.000,1.000
18.519,19.190,18.630,17.746,29.596,22.245,11.166,7.230,-0.006,0.989,0.016,-1.343,0.702,-1.068,100.000,148614.000,1.000
6.294,15.080,15.113,14.505,25.885,17.560,7.287,3.388,-0.009,0.991,0.018,-1.312,0.702,-0.854,100.000,148615.000,1.000
-5.987,10.502,12.104,11.081,22.118,13.056,4.792,1.017,-0.010,0.990,0.018,-1.434,0.671,-0.916,100.000,148616.000,1.000
-18.173,5.571,8.932,7.285,18.029,10.851,3.699,0.130,-0.010,0.993,0.021,-1.465,0.580,-1.007,100.000,148617.000,1.000
-30.034,0.539,5.100,2.817,13.468,10.154,2.754,-0.336,-0.011,0.991,0.019,-1.495,0.488,-0.854,100.000,148618.000,1.000
-41.460,-4.520,0.338,-2.323,8.325,9.292,0.512,-1.640,-0.011,0.993,0.020,-1.495,0.458,-0.854,100.000,148619.000,1.000
-52.269,-9.496,-4.932,-7.562,3.057,7.440,-3.368,-4.160,-0.010,0.995,0.018,-1.648,0.336,-0.824,100.000,148620.000,1.000
-62.415,-14.432,-10.132,-12.133,-1.967,4.536,-7.940,-7.431,-0.011,0.995,0.019,-1.740,0.336,-0.671,100.000,148621.000,1.000
-71.865,-19.256,-14.793,-15.511,-6.651,0.827,-11.568,-10.518,-0.010,0.998,0.021,-1.831,0.183,-0.549,100.000,148622.000,1.000
-80.336,-23.405,-18.334,-17.645,-10.575,-3.038,-12.918,-12.412,-0.009,1.000,0.024,-1.892,0.183,-0.549,100.000,148623.000,1.000
-87.612,-26.416,-20.703,-18.945,-13.472,-6.036,-11.884,-12.715,-0.010,1.002,0.019,-1.953,0.031,-0.519,100.000,148624.000,1.000
-93.508,-28.056,-22.109,-19.871,-15.043,-7.204,-9.394,-11.706,-0.011,1.001,0.018,-2.136,0.122,-0.427,100.000,148625.000,1.000
-98.139,-28.705,-23.200,-20.911,-15.731,-6.678,-7.100,-10.422,-0.011,0.999,0.018,-2.350,0.061,-0.397,100.000,148626.000,1.000
-101.888,-29.245,-24.807,-22.561,-16.710,-5.914,-6.683,-10.186,-0.009,0.999,0.022,-2.380,-0.153,-0.214,100.000,148627.000,1.000
-105.086,-30.446,-27.210,-24.968,-18.717,-6.447,-8.746,-11.680,-0.010,0.998,0.022,-2.502,-0.153,-0.214,100.000,148628.000,1.000
-107.930,-32.652,-30.322,-27.709,-21.872,-8.510,-12.356,-14.478,-0.009,1.000,0.021,-2.655,-0.122,-0.153,100.000,148629.000,1.000
-110.209,-35.254,-33.392,-29.926,-25.285,-10.827,-15.544,-17.185,-0.009,1.001,0.025,-2.777,-0.214,-0.122,100.000,148630.000,1.000
-111.774,-37.442,-35.749,-31.084,-28.172,-12.183,-17.057,-18.777,-0.008,1.001,0.023,-2.930,-0.183,-0.061,100.000,148631.000,1.000
-112.777,-38.961,-37.387,-31.402,-30.459,-12.721,-17.258,-19.427,-0.006,1.001,0.024,-3.082,-0.183,-0.031,100.000,148632.000,1.000
-113.499,-40.098,-38.728,-31.671,-32.281,-13.577,-17.348,-20.039,-0.004,1.000,0.024,-3.235,-0.092,-0.092,100.000,148633.000,1.000
-114.243,-41.547,-40.625,-32.772,-34.145,-15.693,-18.368,-21.491,-0.003,1.003,0.025,-3.387,-0.275,0.000,100.000,148634.000,1.000
-114.785,-43.549,-43.333,-34.967,-36.111,-18.953,-20.387,-23.760,-0.003,1.002,0.026,-3.540,-0.153,0.122,100.000,148635.000,1.000
-114.538,-45.783,-46.451,-37.696,-37.849,-22.323,-22.418,-25.932,0.000,1.000,0.025,-3.632,-0.031,0.061,100.000,148636.000,1.000
-113.001,-47.551,-49.258,-39.809,-38.793,-24.447,-22.802,-26.730,0.001,1.000,0.027,-3.662,-0.031,0.061,100.000,148637.000,1.000
-110.186,-48.317,-51.095,-40.336,-38.414,-24.752,-20.696,-25.522,0.002,0.997,0.029,-3.723,0.031,0.153,100.000,148638.000,1.000
-106.841,-48.583,-52.180,-39.251,-37.272,-24.338,-17.720,-23.333,0.003,0.996,0.029,-3.815,0.122,0.122,100.000,148639.000,1.000
-103.589,-49.165,-52.792,-37.226,-36.128,-24.995,-16.823,-22.065,0.002,0.995,0.030,-3.784,0.244,0.092,100.000,148640.000,1.000
-100.429,-50.441,-52.962,-35.032,-35.569,-27.564,-19.747,-23.063,0.003,0.997,0.028,-3.784,0.427,0.153,100.000,148641.000,1.000
-96.583,-51.950,-52.467,-32.967,-35.706,-31.109,-25.489,-26.119,0.001,0.996,0.028,-3.754,0.427,0.153,100.000,148642.000,1.000
-90.718,-52.585,-50.762,-30.769,-35.698,-33.571,-31.020,-29.653,-0.001,0.995,0.030,-3.632,0.458,0.092,100.000,148643.000,1.000
-81.697,-51.526,-47.715,-28.109,-34.686,-33.422,-33.608,-31.954,-0.002,0.993,0.031,-3.510,0.488,0.183,100.000,148644.000,1.000
-68.954,-48.474,-43.441,-24.878,-32.152,-30.759,-32.393,-31.982,0.001,0.992,0.031,-3.387,0.641,0.214,100.000,148645.000,1.000
-52.980,-44.080,-38.540,-21.325,-28.721,-27.239,-28.701,-29.919,0.000,0.993,0.028,-3.326,0.824,0.092,100.000,148646.000,1.000
-34.884,-39.410,-33.636,-17.662,-25.567,-24.600,-24.715,-26.741,-0.001,0.993,0.029,-3.296,0.763,0.214,100.000,148647.000,1.000
-15.402,-34.814,-28.391,-13.572,-22.835,-23.114,-21.669,-23.173,-0.002,0.993,0.032,-3.326,0.854,0.000,100.000,148648.000,1.000
5.058,-29.955,-21.949,-8.392,-19.834,-21.597,-19.346,-19.334,0.000,0.994,0.031,-3.265,0.793,0.061,100.000,148649.000,1.000
25.913,-24.149,-13.430,-1.663,-15.389,-18.610,-16.600,-14.916,-0.003,0.992,0.030,-3.143,0.854,0.000,100.000,148650.000,1.000
45.625,-17.372,-3.190,6.121,-9.302,-13.858,-12.659,-10.008,-0.001,0.991,0.030,-3.021,0.763,-0.031,100.000,148651.000,1.000
61.963,-10.409,6.975,13.606,-2.633,-8.207,-7.596,-5.101,0.003,0.995,0.031,-2.838,0.793,0.031,100.000,148652.000,1.000
72.920,-4.285,14.982,19.232,3.345,-2.884,-2.138,-0.642,0.004,0.998,0.036,-2.777,0.793,0.092,100.000,148653.000,1.000
77.264,-0.214,19.070,21.684,7.205,0.854,2.260,2.645,0.002,1.000,0.034,-2.716,0.763,0.061,100.000,148654.000,1.000
75.228,1.102,18.926,20.518,8.368,2.167,4.178,3.967,-0.001,1.001,0.030,-2.808,0.793,0.061,100.000,148655.000,1.000
68.283,-0.380,15.516,16.397,7.133,0.911,2.987,2.926,-0.003,1.001,0.034,-2.777,0.732,0.214,100.000,148656.000,1.000
58.467,-4.096,10.385,10.748,4.332,-2.350,-0.918,-0.177,-0.002,1.001,0.033,-2.808,0.885,0.214,100.000,148657.000,1.000
47.568,-9.120,5.088,5.043,1.022,-6.688,-6.381,-4.574,-0.003,0.999,0.035,-2.716,0.732,0.000,100.000,148658.000,1.000
36.314,-14.890,0.163,0.105,-2.522,-11.369,-12.095,-9.558,-0.002,0.998,0.033,-2.716,0.610,0.061,100.000,148659.000,1.000
24.772,-20.920,-4.431,-3.910,-6.170,-15.921,-16.876,-14.401,-0.003,0.995,0.032,-2.594,0.488,-0.092,100.000,148660.000,1.000
12.781,-26.816,-9.045,-7.321,-9.848,-20.117,-20.235,-18.621,-0.004,0.993,0.032,-2.411,0.366,-0.031,100.000,148661.000,1.000
0.397,-32.147,-13.871,-10.438,-13.343,-23.872,-22.293,-21.918,-0.006,0.996,0.030,-2.319,0.275,-0.061,100.000,148662.000,1.000
-11.864,-36.200,-18.375,-13.237,-15.847,-27.495,-23.073,-23.869,-0.007,0.995,0.029,-2.167,0.092,-0.183,100.000,148663.000,1.000
-23.426,-38.502,-22.025,-15.639,-16.871,-32.065,-22.478,-24.316,-0.005,0.992,0.033,-2.136,-0.092,-0.183,100.000,148664.000,1.000
-33.799,-39.016,-24.462,-17.727,-16.337,-38.561,-20.684,-23.649,-0.005,0.990,0.031,-2.075,-0.092,-0.183,100.000,148665.000,1.000
-43.056,-38.671,-26.127,-19.954,-15.229,-46.710,-18.877,-23.036,-0.005,0.990,0.031,-1.923,-0.153,-0.214,100.000,148666.000,1.000
-51.772,-38.955,-28.103,-22.888,-15.214,-54.729,-18.871,-23.805,-0.007,0.989,0.031,-1.831,-0.458,-0.244,100.000,148667.000,1.000
-60.407,-40.696,-31.003,-26.629,-17.126,-60.200,-21.649,-26.327,-0.005,0.990,0.029,-1.648,-0.549,-0.275,100.000,148668.000,1.000
-69.038,-43.713,-34.808,-30.617,-20.776,-61.484,-26.509,-29.709,-0.003,0.990,0.028,-1.526,-0.763,-0.275,100.000,148669.000,1.000
-77.131,-46.826,-38.539,-33.818,-24.693,-58.495,-31.225,-32.130,-0.001,0.989,0.031,-1.343,-0.671,-0.366,100.000,148670.000,1.000
-84.076,-48.957,-41.104,-35.466,-27.314,-52.710,-33.582,-32.161,-0.001,0.990,0.028,-1.190,-0.793,-0.397,100.000,148671.000,1.000
-89.598,-49.844,-42.099,-35.591,-27.948,-46.267,-32.664,-29.633,0.000,0.990,0.024,-1.007,-0.916,-0.427,100.000,148672.000,1.000
-93.770,-49.862,-41.747,-34.942,-26.726,-40.760,-29.021,-25.478,-0.001,0.990,0.025,-0.916,-0.977,-0.549,100.000,148673.000,1.000
-96.950,-49.877,-41.048,-34.527,-24.971,-36.696,-24.349,-21.344,-0.002,0.992,0.026,-0.824,-1.007,-0.580,100.000,148674.000,1.000
-99.203,-50.505,-40.862,-34.903,-24.121,-33.801,-20.708,-18.760,-0.003,0.994,0.025,-0.763,-1.160,-0.641,100.000,148675.000,1.000
-100.385,-52.041,-41.648,-36.002,-25.238,-32.073,-19.902,-18.681,-0.002,0.996,0.024,-0.671,-1.099,-0.702,100.000,148676.000,1.000
-100.282,-54.314,-43.232,-37.244,-28.440,-31.967,-22.569,-21.059,-0.001,0.996,0.026,-0.549,-1.282,-0.885,100.000,148677.000,1.000
-98.729,-56.552,-44.600,-37.923,-32.556,-33.525,-27.719,-24.840,-0.004,0.995,0.026,-0.488,-1.404,-0.885,100.000,148678.000,1.000
-95.990,-58.087,-45.007,-37.764,-36.427,-35.944,-33.480,-28.711,-0.004,0.994,0.028,-0.488,-1.434,-0.916,100.000,148679.000,1.000
-92.400,-58.426,-44.138,-36.834,-38.994,-37.825,-37.787,-31.333,-0.004,0.994,0.021,-0.366,-1.465,-0.946,100.000,148680.000,1.000
-88.379,-57.581,-42.429,-35.366,-39.754,-38.130,-39.219,-31.808,-0.004,0.996,0.024,-0.458,-1.343,-1.007,100.000,148681.000,1.000
-84.413,-55.990,-40.825,-33.654,-38.951,-36.807,-37.627,-30.048,-0.003,0.993,0.023,-0.458,-1.343,-1.007,100.000,148682.000,1.000
-80.837,-54.110,-39.924,-32.073,-37.201,-34.671,-34.175,-26.789,-0.004,0.995,0.025,-0.427,-1.434,-1.099,100.000,148683.000,1.000
-77.916,-52.567,-40.095,-31.156,-35.810,-32.867,-30.858,-23.480,-0.004,0.995,0.024,-0.549,-1.404,-1.282,100.000,148684.000,1.000
-75.499,-51.663,-40.989,-31.182,-35.621,-32.017,-29.123,-21.336,-0.005,0.997,0.024,-0.580,-1.312,-1.251,100.000,148685.000,1.000
-73.118,-51.346,-41.826,-31.929,-36.590,-31.994,-29.179,-20.677,-0.004,0.998,0.025,-0.732,-1.434,-1.282,100.000,148686.000,1.000
-70.148,-51.112,-41.731,-32.707,-37.770,-32.189,-30.124,-20.860,-0.006,1.000,0.024,-0.885,-1.556,-1.373,100.000,148687.000,1.000
-66.005,-49.898,-39.801,-32.643,-37.586,-31.817,-30.548,-20.786,-0.005,1.000,0.024,-1.068,-1.434,-1.434,100.000,148688.000,1.000
-60.599,-46.729,-35.906,-31.121,-35.304,-30.136,-29.373,-19.690,-0.007,1.001,0.021,-1.129,-1.526,-1.373,100.000,148689.000,1.000
-54.099,-40.954,-30.339,-27.876,-30.942,-26.438,-26.033,-17.115,-0.007,1.000,0.020,-1.282,-1.526,-1.373,100.000,148690.000,1.000
-46.892,-32.868,-23.830,-23.143,-25.348,-20.547,-20.680,-13.076,-0.006,0.997,0.020,-1.343,-1.526,-1.465,100.000,148691.000,1.000
-39.494,-23.757,-17.402,-17.644,-19.840,-13.282,-14.203,-8.219,-0.008,0.998,0.018,-1.465,-1.526,-1.526,100.000,148692.000,1.000
-32.552,-15.322,-11.990,-12.532,-15.410,-6.492,-8.197,-3.700,-0.009,0.997,0.019,-1.617,-1.678,-1.465,100.000,148693.000,1.000
-27.167,-9.530,-8.891,-9.328,-13.142,-2.474,-4.768,-0.962,-0.008,0.999,0.018,-1.740,-1.648,-1.373,100.000,148694.000,1.000
-24.437,-7.811,-9.115,-9.285,-13.667,-2.681,-5.265,-0.970,-0.009,0.995,0.020,-1.770,-1.740,-1.312,100.000,148695.000,1.000
-25.020,-10.697,-13.090,-12.855,-17.274,-7.167,-9.591,-4.051,-0.008,0.995,0.021,-1.770,-1.678,-1.404,100.000,148696.000,1.000
-28.469,-17.417,-20.232,-19.310,-23.544,-14.698,-16.382,-9.688,-0.009,0.995,0.020,-1.770,-1.709,-1.434,100.000,148697.000,1.000
-33.003,-25.822,-28.531,-26.741,-30.620,-23.073,-23.625,-16.293,-0.010,0.990,0.022,-1.831,-1.801,-1.373,100.000,148698.000,1.000
-36.505,-33.543,-35.787,-32.822,-36.386,-29.960,-29.672,-21.942,-0.011,0.991,0.023,-1.801,-1.740,-1.312,100.000,148699.000,1.000
-37.320,-38.631,-40.272,-35.736,-39.161,-33.741,-33.629,-25.196,-0.010,0.988,0.021,-1.740,-1.862,-1.404,100.000,148700.000,1.000
-34.903,-40.191,-41.423,-35.047,-38.686,-34.132,-35.503,-25.866,-0.012,0.989,0.021,-1.709,-1.831,-1.251,100.000,148701.000,1.000
-29.749,-38.402,-39.720,-31.639,-35.968,-31.919,-35.769,-24.717,-0.010,0.990,0.024,-1.648,-1.862,-1.190,100.000,148702.000,1.000
-22.956,-34.093,-35.971,-26.978,-32.124,-28.305,-34.854,-22.604,-0.009,0.991,0.020,-1.556,-1.862,-1.129,100.000,148703.000,1.000
-16.102,-28.749,-31.507,-22.530,-28.434,-24.616,-33.360,-20.295,-0.008,0.991,0.020,-1.526,-2.014,-1.221,100.000,148704.000,1.000
-10.467,-23.697,-27.378,-19.129,-25.524,-21.769,-31.871,-18.171,-0.011,0.991,0.023,-1.617,-2.014,-1.221,100.000,148705.000,1.000
-6.626,-19.833,-24.141,-16.866,-23.527,-20.075,-30.769,-16.348,-0.011,0.991,0.024,-1.556,-2.045,-1.190,100.000,148706.000,1.000
-4.385,-17.527,-21.990,-15.374,-22.465,-19.384,-30.157,-14.948,-0.010,0.993,0.024,-1.648,-2.045,-1.129,100.000,148707.000,1.000
-2.934,-16.341,-20.597,-14.126,-21.992,-19.176,-29.811,-14.003,-0.009,0.996,0.025,-1.648,-1.984,-1.007,100.000,148708.000,1.000
-1.379,-15.347,-19.573,-12.667,-21.797,-18.668,-29.317,-13.352,-0.009,0.995,0.026,-1.648,-1.984,-1.068,100.000,148709.000,1.000
1.116,-13.306,-18.185,-10.698,-21.124,-17.053,-28.076,-12.499,-0.009,0.996,0.024,-1.770,-2.014,-1.068,100.000,148710.000,1.000
4.844,-9.622,-15.990,-8.349,-19.485,-14.222,-25.894,-11.155,-0.008,0.999,0.028,-1.923,-2.045,-1.038,100.000,148711.000,1.000
9.422,-4.794,-13.249,-6.007,-17.068,-10.836,-23.113,-9.338,-0.009,0.999,0.025,-2.014,-2.045,-1.129,100.000,148712.000,1.000
14.064,0.086,-10.435,-3.975,-14.149,-7.715,-20.123,-7.147,-0.008,0.997,0.025,-2.197,-2.014,-1.038,100.000,148713.000,1.000
17.707,3.714,-8.266,-2.525,-11.389,-5.517,-17.331,-5.088,-0.009,0.998,0.025,-2.350,-2.014,-1.038,100.000,148714.000,1.000
19.802,5.589,-6.897,-1.742,-9.087,-4.435,-14.980,-3.747,-0.007,0.999,0.027,-2.533,-1.892,-0.977,100.000,148715.000,1.000
20.486,6.056,-6.000,-1.549,-7.286,-4.180,-13.182,-3.411,-0.006,1.000,0.028,-2.716,-2.014,-0.946,100.000,148716.000,1.000
20.307,5.824,-5.206,-1.814,-6.050,-4.215,-11.968,-3.900,-0.005,1.003,0.026,-2.838,-1.831,-0.916,100.000,148717.000,1.000
19.944,5.565,-4.149,-2.426,-5.223,-4.191,-11.324,-4.732,-0.005,1.005,0.029,-2.960,-1.678,-0.854,100.000,148718.000,1.000
19.828,5.406,-2.970,-3.340,-4.869,-4.271,-11.392,-5.585,-0.004,1.008,0.028,-2.991,-1.556,-0.946,100.000,148719.000,1.000
20.353,5.456,-1.683,-4.349,-4.641,-4.710,-12.198,-6.225,-0.002,1.008,0.025,-3.113,-1.587,-0.854,100.000,148720.000,1.000
21.689,5.886,-0.193,-5.112,-4.174,-5.472,-13.634,-6.590,-0.003,1.009,0.027,-3.418,-1.434,-0.702,100.000,148721.000,1.000
23.752,6.866,1.517,-5.200,-3.453,-6.118,-15.293,-6.671,-0.003,1.008,0.027,-3.510,-1.373,-0.732,100.000,148722.000,1.000
26.258,8.413,3.419,-4.364,-2.592,-6.216,-16.519,-6.382,-0.003,1.006,0.028,-3.632,-1.312,-0.641,100.000,148723.000,1.000
28.477,9.851,4.883,-2.993,-2.324,-5.971,-17.076,-5.915,-0.003,1.001,0.027,-3.693,-1.221,-0.732,100.000,148724.000,1.000
29.746,10.564,5.451,-1.913,-2.979,-5.926,-17.179,-5.646,-0.005,0.995,0.030,-3.754,-1.099,-0.732,100.000,148725.000,1.000
29.811,10.531,5.081,-1.909,-4.305,-6.340,-17.275,-6.114,-0.005,0.993,0.032,-3.632,-0.916,-0.702,100.000,148726.000,1.000
29.066,10.426,4.143,-3.114,-5.621,-6.761,-17.510,-7.534,-0.006,0.993,0.031,-3.571,-0.916,-0.671,100.000,148727.000,1.000
28.510,11.234,3.532,-4.778,-5.773,-6.224,-17.366,-9.301,-0.007,0.991,0.033,-3.662,-0.824,-0.793,100.000,148728.000,1.000
28.922,13.232,3.786,-5.905,-4.199,-4.096,-16.238,-10.508,-0.007,0.991,0.037,-3.601,-0.671,-0.946,100.000,148729.000,1.000
30.624,16.174,5.134,-5.846,-0.719,-0.436,-13.804,-10.328,-0.009,0.993,0.037,-3.448,-0.702,-0.916,100.000,148730.000,1.000
33.346,19.439,7.275,-4.658,4.160,4.059,-10.243,-8.448,-0.009,0.994,0.040,-3.448,-0.702,-0.946,100.000,148731.000,1.000
36.449,22.265,9.396,-2.965,9.187,8.415,-6.196,-5.286,-0.008,0.991,0.040,-3.357,-0.641,-1.129,100.000,148732.000,1.000
39.292,24.136,10.804,-1.573,13.051,11.652,-2.663,-1.911,-0.010,0.992,0.039,-3.235,-0.610,-1.099,100.000,148733.000,1.000
41.287,24.700,10.927,-1.114,14.495,12.948,-0.786,0.357,-0.009,0.994,0.040,-3.265,-0.732,-1.282,100.000,148734.000,1.000
42.411,24.363,10.088,-1.565,13.555,12.284,-0.818,1.110,-0.012,0.994,0.039,-3.326,-0.671,-1.282,100.000,148735.000,1.000
42.937,24.003,9.127,-2.438,11.281,10.503,-2.034,0.909,-0.011,0.992,0.038,-3.265,-0.732,-1.312,100.000,148736.000,1.000
43.067,24.385,8.652,-3.184,8.828,8.826,-3.423,0.575,-0.013,0.993,0.041,-3.143,-0.824,-1.282,100.000,148737.000,1.000
43.064,26.000,9.082,-3.309,7.309,8.350,-4.052,0.822,-0.011,0.994,0.039,-3.113,-0.732,-1.221,100.000,148738.000,1.000
43.118,28.629,10.232,-2.515,7.023,9.356,-3.422,1.951,-0.011,0.994,0.044,-3.021,-0.824,-1.190,100.000,148739.000,1.000
43.296,31.528,11.691,-0.822,7.768,11.074,-1.686,3.833,-0.011,0.995,0.044,-2.960,-0.732,-1.251,100.000,148740.000,1.000
43.203,33.443,12.675,1.234,8.632,12.148,0.079,5.682,-0.010,0.993,0.044,-2.960,-0.641,-1.160,100.000,148741.000,1.000
42.336,33.386,12.348,2.966,8.472,11.838,0.638,6.498,-0.009,0.991,0.039,-2.808,-0.519,-1.129,100.000,148742.000,1.000
40.777,31.596,10.759,4.116,7.110,10.688,-0.180,5.928,-0.007,0.992,0.042,-2.686,-0.580,-1.007,100.000,148743.000,1.000
39.020,29.147,8.504,4.880,4.938,9.877,-1.521,4.389,-0.007,0.990,0.042,-2.502,-0.519,-0.916,100.000,148744.000,1.000
37.792,27.520,6.693,5.737,2.968,10.423,-2.161,2.958,-0.007,0.992,0.041,-2.411,-0.519,-0.946,100.000,148745.000,1.000
37.413,27.562,6.106,6.980,1.856,12.477,-1.586,2.535,-0.007,0.992,0.039,-2.319,-0.549,-0.793,100.000,148746.000,1.000
37.574,28.983,6.628,8.420,1.261,15.256,-0.298,3.211,-0.009,0.993,0.041,-2.197,-0.488,-0.977,100.000,148747.000,1.000
37.808,30.961,7.790,9.573,0.560,17.757,0.846,4.412,-0.009,0.991,0.037,-2.045,-0.519,-0.702,100.000,148748.000,1.000
37.808,32.646,8.907,10.058,-0.844,19.458,1.286,5.275,-0.008,0.991,0.038,-1.984,-0.336,-0.702,100.000,148749.000,1.000
37.857,33.897,9.879,10.111,-2.470,20.638,1.388,5.521,-0.009,0.993,0.038,-1.892,-0.183,-0.641,100.000,148750.000,1.000
38.376,34.883,10.903,10.299,-3.410,21.789,1.941,5.544,-0.010,0.993,0.040,-1.770,-0.214,-0.519,100.000,148751.000,1.000
39.385,35.596,11.888,10.898,-3.399,23.030,3.210,5.863,-0.009,0.993,0.043,-1.678,-0.214,-0.488,100.000,148752.000,1.000
40.568,36.020,12.634,11.696,-2.775,24.136,4.674,6.610,-0.010,0.994,0.041,-1.587,-0.275,-0.336,100.000,148753.000,1.000
41.484,36.149,12.817,12.282,-2.570,24.944,5.519,7.353,-0.009,0.992,0.038,-1.587,-0.305,-0.366,100.000,148754.000,1.000
42.116,36.444,12.826,12.622,-3.243,25.850,5.804,7.912,-0.008,0.992,0.038,-1.343,-0.275,-0.458,100.000,148755.000,1.000
42.503,37.211,13.247,12.951,-4.686,27.407,6.353,8.532,-0.008,0.993,0.038,-1.404,-0.214,-0.305,100.000,148756.000,1.000
42.443,38.082,14.031,13.450,-6.706,29.589,7.750,9.442,-0.009,0.992,0.038,-1.221,-0.275,-0.275,100.000,148757.000,1.000
41.816,38.498,14.753,14.146,-8.868,31.689,9.765,10.603,-0.008,0.991,0.037,-1.190,-0.214,-0.244,100.000,148758.000,1.000
40.733,38.062,14.706,14.857,-11.066,32.813,11.432,11.547,-0.007,0.991,0.037,-1.160,-0.092,-0.214,100.000,148759.000,1.000
39.827,37.218,13.874,15.472,-12.888,32.680,11.986,11.887,-0.006,0.989,0.036,-1.190,-0.214,-0.244,100.000,148760.000,1.000
39.704,36.802,12.843,15.996,-13.840,31.649,11.307,11.553,-0.007,0.990,0.034,-1.282,-0.244,-0.092,100.000,148761.000,1.000
40.370,37.252,12.259,16.498,-13.707,30.336,9.918,10.884,-0.007,0.992,0.037,-1.251,-0.214,-0.122,100.000,148762.000,1.000
41.347,38.417,12.692,16.984,-12.296,29.347,8.728,10.496,-0.006,0.992,0.034,-1.312,-0.183,-0.244,100.000,148763.000,1.000
41.897,39.530,13.896,17.189,-9.951,29.083,8.432,10.803,-0.006,0.994,0.037,-1.373,-0.183,-0.305,100.000,148764.000,1.000
41.637,40.070,15.267,16.757,-6.885,29.761,9.367,12.068,-0.007,0.993,0.039,-1.404,-0.153,-0.214,100.000,148765.000,1.000
40.485,39.869,16.074,15.353,-3.443,31.048,11.038,13.936,-0.006,0.993,0.038,-1.526,-0.061,-0.153,100.000,148766.000,1.000
38.534,38.955,15.740,12.836,-0.405,31.926,12.113,15.212,-0.006,0.996,0.039,-1.617,-0.031,-0.244,100.000,148767.000,1.000
36.032,37.451,14.280,9.395,1.603,31.184,11.333,14.599,-0.006,0.998,0.040,-1.831,-0.031,-0.244,100.000,148768.000,1.000
33.107,35.071,11.725,5.433,2.015,28.037,8.179,11.401,-0.005,0.998,0.041,-1.923,0.000,-0.183,100.000,148769.000,1.000
30.157,31.746,8.578,1.699,1.265,22.908,3.435,6.285,-0.006,1.001,0.039,-2.075,0.000,-0.214,100.000,148770.000,1.000
27.853,27.974,5.827,-0.887,0.653,17.600,-0.922,1.154,-0.005,1.004,0.040,-2.167,0.061,-0.275,100.000,148771.000,1.000
26.792,24.777,4.515,-1.685,1.602,14.543,-2.543,-1.726,-0.004,1.006,0.040,-2.380,0.061,-0.336,100.000,148772.000,1.000
26.996,23.102,5.235,-0.937,4.881,15.063,-0.364,-1.163,-0.005,1.006,0.043,-2.441,0.122,-0.366,100.000,148773.000,1.000
27.357,22.653,7.084,-0.009,9.285,18.092,4.050,1.737,-0.005,1.004,0.040,-2.594,0.092,-0.610,100.000,148774.000,1.000
26.557,22.487,8.611,-0.322,12.973,21.239,7.863,4.657,-0.005,1.003,0.038,-2.686,0.000,-0.610,100.000,148775.000,1.000
24.047,21.879,8.804,-2.196,14.829,22.687,9.203,5.937,-0.004,1.002,0.042,-2.747,0.183,-0.549,100.000,148776.000,1.000
20.327,20.739,7.473,-4.735,14.903,22.142,8.094,5.521,-0.006,0.998,0.046,-2.777,0.122,-0.610,100.000,148777.000,1.000
16.541,19.601,5.443,-6.636,14.370,20.563,5.931,4.544,-0.006,0.997,0.047,-2.838,0.183,-0.488,100.000,148778.000,1.000
13.602,18.937,3.718,-7.122,14.210,19.132,4.184,4.100,-0.007,0.994,0.047,-2.716,0.122,-0.702,100.000,148779.000,1.000
12.024,19.095,3.273,-6.153,15.093,18.472,3.619,4.661,-0.008,0.991,0.049,-2.716,0.122,-0.793,100.000,148780.000,1.000
11.638,19.873,4.230,-4.452,16.838,18.250,3.780,5.705,-0.006,0.991,0.047,-2.533,0.183,-0.793,100.000,148781.000,1.000
11.761,20.649,5.698,-3.105,18.495,17.728,3.548,6.215,-0.006,0.988,0.045,-2.350,0.153,-0.824,100.000,148782.000,1.000
11.875,21.115,6.883,-2.805,19.524,16.639,2.374,5.712,-0.006,0.990,0.044,-2.258,0.122,-0.793,100.000,148783.000,1.000
11.715,21.226,7.301,-3.594,19.752,15.308,0.588,4.375,-0.008,0.991,0.044,-2.106,0.092,-0.702,100.000,148784.000,1.000
11.381,21.343,7.185,-4.968,19.741,14.452,-0.795,2.878,-0.010,0.991,0.043,-2.014,0.092,-0.732,100.000,148785.000,1.000
10.997,21.719,6.912,-6.378,19.972,14.545,-0.961,1.797,-0.011,0.989,0.042,-1.862,0.031,-0.824,100.000,148786.000,1.000
10.653,22.322,6.623,-7.425,20.412,15.436,0.184,1.339,-0.009,0.987,0.042,-1.709,-0.031,-0.732,100.000,148787.000,1.000
10.679,23.307,6.733,-7.724,21.344,16.684,2.310,1.496,-0.008,0.988,0.042,-1.404,-0.061,-0.732,100.000,148788.000,1.000
11.298,24.727,7.464,-7.038,22.968,17.920,4.847,1.978,-0.008,0.990,0.040,-1.373,-0.122,-0.641,100.000,148789.000,1.000
12.558,26.501,8.944,-5.383,25.440,19.054,7.338,2.519,-0.008,0.989,0.039,-1.343,-0.183,-0.580,100.000,148790.000,1.000
14.122,28.135,10.951,-3.225,28.385,19.978,9.423,2.828,-0.008,0.992,0.042,-1.312,-0.214,-0.610,100.000,148791.000,1.000
15.352,28.968,12.947,-1.343,30.996,20.363,10.833,2.609,-0.008,0.993,0.045,-1.251,-0.122,-0.488,100.000,148792.000,1.000
15.642,28.745,14.590,-0.439,32.853,19.805,11.546,1.872,-0.010,0.995,0.045,-1.221,-0.214,-0.427,100.000,148793.000,1.000
14.466,27.404,15.327,-0.939,33.446,18.041,11.661,0.870,-0.009,0.997,0.043,-1.190,-0.214,-0.305,100.000,148794.000,1.000
11.943,25.271,14.880,-2.747,32.667,15.272,11.372,0.127,-0.008,1.000,0.041,-1.251,-0.122,-0.488,100.000,148795.000,1.000
8.753,22.670,13.227,-5.411,30.653,11.879,10.578,-0.139,-0.006,1.000,0.041,-1.221,-0.183,-0.549,100.000,148796.000,1.000
5.767,19.738,10.575,-8.345,27.705,8.210,9.090,-0.200,-0.006,0.999,0.043,-1.434,-0.244,-0.549,100.000,148797.000,1.000
3.773,16.870,7.825,-10.866,24.815,4.769,7.440,-0.170,-0.007,1.002,0.041,-1.526,-0.214,-0.427,100.000,148798.000,1.000
2.845,14.486,5.796,-12.487,22.777,2.000,6.584,0.127,-0.007,1.003,0.042,-1.709,-0.366,-0.549,100.000,148799.000,1.000
2.391,12.948,4.898,-13.197,21.993,-0.083,6.914,0.688,-0.006,1.001,0.040,-1.923,-0.336,-0.519,100.000,148800.000,1.000
1.431,12.061,4.716,-13.620,22.033,-2.065,7.525,0.681,-0.006,1.000,0.042,-1.953,-0.366,-0.488,100.000,148801.000,1.000
-0.611,11.302,4.398,-14.431,22.040,-4.511,7.125,-0.804,-0.008,0.999,0.042,-1.984,-0.336,-0.610,100.000,148802.000,1.000
-3.218,10.599,3.756,-15.678,21.760,-7.264,5.302,-3.666,-0.008,1.000,0.043,-2.136,-0.305,-0.702,100.000,148803.000,1.000
-5.372,9.961,2.839,-16.996,20.893,-9.778,2.367,-7.202,-0.007,0.999,0.042,-2.136,-0.397,-0.793,100.000,148804.000,1.000
-6.390,9.284,1.778,-18.102,19.258,-11.748,-0.923,-10.590,-0.006,0.999,0.043,-2.319,-0.366,-0.793,100.000,148805.000,1.000
-6.635,8.139,0.418,-19.141,16.765,-13.432,-3.787,-13.295,-0.007,0.998,0.042,-2.289,-0.488,-0.824,100.000,148806.000,1.000
-7.042,6.283,-1.414,-20.376,13.728,-15.195,-5.678,-15.111,-0.006,0.996,0.042,-2.380,-0.366,-0.885,100.000,148807.000,1.000
-8.087,4.207,-3.200,-21.713,11.275,-17.004,-6.321,-15.954,-0.006,0.995,0.046,-2.380,-0.397,-0.885,100.000,148808.000,1.000
-9.718,2.396,-4.485,-22.838,10.007,-18.655,-5.953,-16.005,-0.002,0.998,0.042,-2.319,-0.305,-0.854,100.000,148809.000,1.000
-11.422,1.130,-4.977,-23.411,9.949,-19.895,-4.859,-15.359,-0.006,0.997,0.042,-2.350,-0.336,-0.977,100.000,148810.000,1.000
-12.709,0.292,-4.813,-23.356,10.619,-20.582,-3.171,-14.004,-0.004,0.995,0.045,-2.258,-0.275,-0.946,100.000,148811.000,1.000
-13.392,-0.528,-4.517,-22.951,11.293,-20.900,-1.122,-12.094,-0.005,0.994,0.043,-2.167,-0.214,-0.977,100.000,148812.000,1.000
-13.487,-1.648,-4.413,-22.657,11.614,-21.401,0.632,-10.214,-0.007,0.992,0.049,-2.045,-0.092,-0.916,100.000,148813.000,1.000
-13.311,-3.389,-4.872,-22.886,11.120,-22.701,1.075,-9.372,-0.007,0.992,0.047,-1.984,-0.214,-0.916,100.000,148814.000,1.000
-13.095,-5.521,-5.765,-23.507,9.960,-24.684,-0.073,-10.004,-0.009,0.990,0.044,-1.923,-0.183,-0.885,100.000,148815.000,1.000
-13.059,-7.528,-6.711,-24.011,8.675,-26.565,-2.143,-11.795,-0.010,0.993,0.042,-1.678,-0.092,-0.916,100.000,148816.000,1.000
-13.358,-9.076,-7.521,-23.998,7.637,-27.610,-4.239,-14.169,-0.011,0.993,0.042,-1.617,-0.122,-0.763,100.000,148817.000,1.000
-13.855,-10.076,-7.950,-23.371,7.194,-27.615,-5.801,-16.480,-0.009,0.992,0.042,-1.587,-0.214,-0.763,100.000,148818.000,1.000
-14.535,-11.069,-8.230,-22.401,6.997,-27.048,-6.783,-18.290,-0.007,0.992,0.040,-1.495,-0.092,-0.702,100.000,148819.000,1.000
-15.459,-12.614,-8.763,-21.477,6.535,-26.524,-7.060,-19.290,-0.005,0.993,0.041,-1.434,-0.153,-0.702,100.000,148820.000,1.000
-16.712,-14.889,-10.032,-20.995,5.226,-26.376,-6.412,-19.444,-0.006,0.990,0.042,-1.373,-0.153,-0.610,100.000,148821.000,1.000
-18.312,-17.595,-12.391,-21.165,2.662,-26.520,-4.832,-18.898,-0.007,0.991,0.042,-1.373,-0.031,-0.519,100.000,148822.000,1.000
-20.068,-20.060,-15.474,-21.813,-0.665,-26.638,-2.620,-17.753,-0.006,0.993,0.042,-1.312,0.000,-0.549,100.000,148823.000,1.000
-21.772,-21.963,-18.628,-22.524,-4.099,-26.656,-0.495,-16.337,-0.007,0.996,0.039,-1.312,-0.031,-0.427,100.000,148824.000,1.000
-22.955,-23.082,-20.697,-22.676,-6.671,-26.621,1.031,-14.911,-0.005,0.994,0.040,-1.282,0.092,-0.366,100.000,148825.000,1.000
-23.214,-23.339,-20.644,-21.695,-7.640,-26.416,2.062,-13.498,-0.004,0.995,0.038,-1.251,0.122,-0.214,100.000,148826.000,1.000
-22.569,-22.873,-18.381,-19.404,-7.072,-25.703,3.065,-12.009,-0.003,0.994,0.041,-1.251,0.122,-0.214,100.000,148827.000,1.000
-21.298,-21.892,-14.652,-16.222,-5.556,-24.291,4.180,-10.566,-0.002,0.993,0.040,-1.343,0.153,-0.183,100.000,148828.000,1.000
-19.984,-21.047,-11.112,-13.117,-4.452,-22.654,4.727,-9.819,-0.004,0.993,0.040,-1.343,0.183,-0.092,100.000,148829.000,1.000
-19.143,-20.916,-9.198,-10.945,-4.705,-21.557,4.055,-10.211,-0.004,0.994,0.039,-1.251,0.244,0.031,100.000,148830.000,1.000
-19.171,-21.784,-9.566,-10.066,-6.466,-21.519,2.147,-11.566,-0.003,0.994,0.039,-1.251,0.214,-0.031,100.000,148831.000,1.000
-20.129,-23.519,-11.966,-10.300,-9.207,-22.482,-0.325,-13.214,-0.006,0.996,0.041,-1.312,0.153,-0.031,100.000,148832.000,1.000
-21.573,-25.370,-15.062,-11.067,-11.587,-23.673,-2.089,-14.265,-0.006,0.997,0.040,-1.404,0.275,0.000,100.000,148833.000,1.000
-23.151,-26.600,-17.554,-11.808,-12.609,-24.088,-1.952,-14.177,-0.004,0.995,0.039,-1.404,0.366,0.031,100.000,148834.000,1.000
-24.596,-26.613,-18.479,-12.097,-11.689,-23.145,0.523,-12.873,-0.006,0.995,0.040,-1.251,0.275,-0.092,100.000,148835.000,1.000
-25.672,-25.370,-17.590,-11.761,-9.073,-21.225,4.438,-10.941,-0.008,0.995,0.040,-1.404,0.244,-0.122,100.000,148836.000,1.000
-26.192,-23.555,-15.479,-10.836,-5.972,-19.385,8.060,-9.325,-0.009,0.996,0.038,-1.373,0.305,-0.214,100.000,148837.000,1.000
-26.086,-22.096,-12.955,-9.419,-3.618,-18.535,10.093,-8.596,-0.010,0.995,0.041,-1.282,0.275,-0.214,100.000,148838.000,1.000
-25.717,-21.937,-11.050,-7.741,-3.077,-18.997,10.175,-8.897,-0.011,0.996,0.043,-1.282,0.244,-0.305,100.000,148839.000,1.000
-25.435,-23.240,-10.275,-6.031,-4.355,-20.364,8.888,-9.956,-0.012,0.995,0.038,-1.251,0.061,-0.397,100.000,148840.000,1.000
-25.391,-25.451,-10.615,-4.507,-6.798,-21.959,7.064,-11.451,-0.011,0.994,0.039,-1.251,0.000,-0.488,100.000,148841.000,1.000
-25.514,-27.752,-11.757,-3.296,-9.685,-23.239,5.445,-12.961,-0.012,0.995,0.037,-1.312,-0.092,-0.519,100.000,148842.000,1.000
-25.493,-29.331,-12.895,-2.357,-12.013,-23.830,4.761,-13.769,-0.011,0.996,0.036,-1.160,-0.153,-0.671,100.000,148843.000,1.000
-25.273,-30.097,-13.530,-1.691,-13.424,-23.695,5.260,-13.474,-0.011,0.993,0.037,-1.160,-0.275,-0.702,100.000,148844.000,1.000
-24.964,-30.398,-13.389,-1.332,-14.000,-23.068,6.598,-12.216,-0.014,0.992,0.036,-1.190,-0.397,-0.702,100.000,148845.000,1.000
-24.722,-30.733,-12.523,-1.286,-14.141,-22.364,7.974,-10.634,-0.011,0.991,0.035,-1.160,-0.488,-0.580,100.000,148846.000,1.000
-24.568,-31.433,-11.351,-1.321,-14.253,-21.866,8.780,-9.342,-0.010,0.991,0.038,-1.221,-0.519,-0.580,100.000,148847.000,1.000
-24.262,-32.378,-10.158,-0.900,-14.091,-21.462,9.170,-8.381,-0.008,0.993,0.035,-1.038,-0.610,-0.610,100.000,148848.000,1.000
-23.660,-33.424,-9.338,0.460,-13.443,-20.810,9.709,-7.482,-0.008,0.994,0.036,-1.038,-0.671,-0.702,100.000,148849.000,1.000
-22.563,-34.147,-8.807,2.997,-11.861,-19.374,11.046,-6.242,-0.007,0.993,0.036,-1.038,-0.732,-0.549,100.000,148850.000,1.000
-21.088,-34.227,-8.315,6.255,-9.283,-17.033,13.143,-4.737,-0.006,0.994,0.036,-1.007,-0.671,-0.519,100.000,148851.000,1.000
-19.865,-33.809,-7.998,9.015,-6.631,-14.626,14.912,-3.783,-0.006,0.994,0.033,-1.038,-0.732,-0.336,100.000,148852.000,1.000
-19.504,-33.136,-8.011,9.974,-5.075,-13.465,14.974,-4.282,-0.005,0.994,0.037,-0.946,-0.641,-0.214,100.000,148853.000,1.000
-20.313,-32.682,-8.741,8.446,-5.832,-14.418,12.478,-6.666,-0.003,0.993,0.035,-1.038,-0.641,-0.214,100.000,148854.000,1.000
-21.890,-32.706,-10.118,4.945,-8.925,-17.078,7.928,-10.193,-0.003,0.993,0.035,-1.190,-0.641,-0.183,100.000,148855.000,1.000
-23.354,-33.117,-11.518,1.053,-13.108,-19.901,3.093,-13.180,-0.003,0.993,0.034,-1.099,-0.580,-0.061,100.000,148856.000,1.000
-23.847,-33.478,-12.156,-1.355,-16.596,-21.097,0.102,-13.971,-0.002,0.994,0.036,-1.068,-0.366,0.031,100.000,148857.000,1.000
-22.936,-33.088,-11.312,-1.127,-17.643,-19.678,0.295,-11.879,-0.001,0.998,0.036,-1.221,-0.366,0.031,100.000,148858.000,1.000
-21.197,-31.873,-9.359,1.384,-16.096,-16.250,3.196,-7.820,-0.001,1.003,0.035,-1.221,-0.244,0.092,100.000,148859.000,1.000
-19.780,-30.401,-7.403,4.651,-13.206,-12.613,6.846,-3.654,-0.003,1.003,0.039,-1.221,-0.275,0.275,100.000,148860.000,1.000
-19.805,-29.688,-6.684,6.913,-10.948,-10.655,8.867,-1.223,-0.002,1.003,0.040,-1.312,-0.183,0.275,100.000,148861.000,1.000
-21.671,-30.446,-7.865,7.316,-10.747,-11.091,8.007,-1.277,0.000,1.005,0.040,-1.404,-0.092,0.275,100.000,148862.000,1.000
-24.621,-32.251,-10.260,6.422,-12.114,-13.076,5.082,-2.903,0.001,1.006,0.039,-1.465,-0.031,0.336,100.000,148863.000,1.000
-27.498,-34.334,-12.805,5.448,-13.787,-15.273,1.923,-4.564,0.000,1.004,0.040,-1.495,0.122,0.244,100.000,148864.000,1.000
-29.354,-36.148,-14.574,5.274,-14.535,-16.876,-0.113,-5.259,-0.001,1.000,0.040,-1.556,0.214,0.305,100.000,148865.000,1.000
-29.942,-37.669,-15.259,5.842,-14.014,-17.892,-0.984,-5.127,-0.001,0.998,0.038,-1.617,0.153,0.366,100.000,148866.000,1.000
-29.694,-39.162,-15.235,6.415,-12.875,-18.633,-1.433,-4.903,0.001,0.998,0.040,-1.617,0.214,0.305,100.000,148867.000,1.000
-29.217,-40.606,-14.871,6.292,-11.785,-19.218,-2.003,-5.013,0.002,0.996,0.038,-1.587,0.305,0.336,100.000,148868.000,1.000
-29.085,-41.820,-14.660,5.198,-11.431,-19.619,-2.917,-5.509,0.000,0.995,0.039,-1.526,0.519,0.305,100.000,148869.000,1.000
-29.364,-42.184,-14.655,3.473,-11.762,-19.602,-3.936,-5.992,-0.001,0.994,0.041,-1.526,0.458,0.244,100.000,148870.000,1.000
-29.812,-41.203,-14.694,1.684,-12.326,-19.080,-4.687,-6.049,-0.002,0.991,0.043,-1.465,0.549,0.000,100.000,148871.000,1.000
-30.262,-39.171,-14.832,0.203,-12.883,-18.563,-5.005,-5.630,-0.004,0.993,0.041,-1.373,0.427,0.000,100.000,148872.000,1.000
-30.526,-36.903,-14.947,-0.847,-13.082,-19.248,-4.820,-4.827,-0.002,0.991,0.040,-1.221,0.427,0.092,100.000,148873.000,1.000
-30.449,-35.427,-15.023,-1.618,-12.973,-23.124,-4.339,-3.901,-0.003,0.990,0.041,-1.190,0.366,0.031,100.000,148874.000,1.000
-29.642,-35.108,-14.815,-2.299,-12.542,-32.553,-3.927,-3.082,-0.003,0.990,0.039,-1.282,0.397,0.031,100.000,148875.000,1.000
-27.868,-35.694,-14.158,-3.066,-11.879,-49.179,-3.974,-2.641,-0.004,0.993,0.041,-1.160,0.427,0.000,100.000,148876.000,1.000
-25.376,-36.680,-13.244,-4.006,-11.265,-72.407,-4.532,-2.745,-0.004,0.992,0.038,-1.007,0.366,0.000,100.000,148877.000,1.000
-22.684,-37.403,-12.115,-5.074,-10.518,-98.830,-5.211,-3.134,-0.004,0.993,0.041,-1.068,0.366,-0.244,100.000,148878.000,1.000
-20.503,-37.584,-10.998,-6.349,-9.613,-123.504,-5.819,-3.391,-0.005,0.994,0.040,-1.007,0.244,-0.153,100.000,148879.000,1.000
-19.102,-36.966,-9.878,-7.912,-8.419,-141.664,-6.245,-2.994,-0.005,0.996,0.040,-0.946,0.275,-0.061,100.000,148880.000,1.000
-18.234,-35.277,-8.574,-9.703,-6.958,-150.317,-6.180,-1.651,-0.004,0.999,0.041,-0.916,0.183,-0.092,100.000,148881.000,1.000
-17.488,-32.507,-7.047,-11.476,-5.637,-149.152,-5.156,0.538,-0.004,0.999,0.041,-0.916,0.275,-0.153,100.000,148882.000,1.000
-16.532,-28.974,-5.267,-13.005,-4.764,-140.536,-3.065,3.080,-0.002,0.997,0.042,-0.946,0.214,-0.122,100.000,148883.000,1.000
-15.504,-25.666,-3.793,-14.485,-5.034,-128.588,-0.921,4.832,-0.003,0.996,0.044,-0.885,0.244,-0.122,100.000,148884.000,1.000
-14.569,-23.393,-3.061,-16.130,-6.680,-117.026,-0.104,4.864,-0.003,0.995,0.044,-0.916,0.183,-0.092,100.000,148885.000,1.000
-13.693,-22.278,-2.946,-17.712,-9.209,-107.580,-1.276,3.245,-0.002,0.997,0.041,-0.916,0.275,-0.031,100.000,148886.000,1.000
-12.666,-21.785,-2.912,-18.575,-11.770,-99.935,-4.002,0.952,-0.001,0.996,0.037,-0.916,0.214,0.092,100.000,148887.000,1.000
-11.104,-20.834,-1.991,-18.045,-13.113,-92.525,-6.983,-0.836,0.001,0.996,0.038,-0.854,0.244,0.092,100.000,148888.000,1.000
-8.809,-18.578,0.328,-15.968,-12.557,-83.566,-8.771,-1.577,0.001,0.994,0.038,-0.824,0.122,0.061,100.000,148889.000,1.000
-5.575,-14.465,4.183,-12.689,-9.807,-71.641,-8.087,-1.040,0.001,0.995,0.041,-0.793,0.305,0.183,100.000,148890.000,1.000
-1.363,-8.643,9.183,-8.952,-5.291,-56.435,-4.477,0.816,0.003,0.994,0.041,-0.824,0.397,0.275,100.000,148891.000,1.000
3.511,-2.066,14.376,-5.637,-0.257,-39.139,1.239,3.687,0.003,0.994,0.038,-0.793,0.427,0.305,100.000,148892.000,1.000
8.592,4.265,19.062,-3.227,4.368,-21.790,7.572,7.230,0.005,0.993,0.039,-0.763,0.427,0.427,100.000,148893.000,1.000
13.102,9.481,22.617,-1.702,7.896,-6.262,13.115,11.134,0.004,0.993,0.037,-0.824,0.549,0.427,100.000,148894.000,1.000
16.098,13.033,24.609,-0.857,9.987,6.370,16.891,14.952,0.004,0.991,0.038,-0.702,0.458,0.397,100.000,148895.000,1.000
16.520,14.297,24.319,-1.078,10.023,15.459,17.828,17.380,0.006,0.988,0.038,-0.641,0.580,0.427,100.000,148896.000,1.000
13.644,12.634,20.761,-3.393,7.148,20.552,14.886,16.504,0.003,0.989,0.036,-0.732,0.580,0.488,100.000,148897.000,1.000
7.892,8.241,13.995,-8.426,1.633,22.045,8.220,11.348,0.002,0.992,0.035,-0.702,0.610,0.397,100.000,148898.000,1.000
0.792,2.259,5.447,-15.419,-5.152,21.625,-0.377,2.882,0.001,0.995,0.035,-0.671,0.580,0.366,100.000,148899.000,1.000
-5.376,-3.255,-2.124,-22.180,-10.783,21.776,-8.034,-6.027,0.001,0.994,0.034,-0.610,0.610,0.244,100.000,148900.000,1.000
-8.736,-6.460,-6.203,-26.371,-13.187,24.274,-12.461,-12.311,0.003,0.992,0.032,-0.549,0.580,0.214,100.000,148901.000,1.000
-8.692,-6.737,-6.056,-26.797,-11.977,29.316,-13.099,-14.398,0.000,0.991,0.035,-0.549,0.549,0.092,100.000,148902.000,1.000
-5.800,-4.475,-2.482,-23.731,-8.104,35.918,-10.955,-12.628,0.000,0.990,0.033,-0.519,0.549,0.000,100.000,148903.000,1.000
-1.546,-0.927,2.481,-18.616,-3.653,42.589,-8.007,-8.944,0.000,0.991,0.030,-0.458,0.488,-0.092,100.000,148904.000,1.000
2.546,2.573,6.890,-13.093,-0.233,48.202,-5.811,-5.440,0.001,0.992,0.032,-0.366,0.397,-0.183,100.000,148905.000,1.000
5.561,5.083,9.708,-8.180,1.710,52.480,-4.635,-3.196,0.001,0.993,0.035,-0.366,0.488,-0.214,100.000,148906.000,1.000
7.471,6.391,10.935,-3.959,2.562,55.940,-3.708,-1.990,0.000,0.993,0.034,-0.214,0.458,-0.305,100.000,148907.000,1.000
8.969,7.068,11.527,0.079,3.239,59.279,-2.229,-0.853,0.001,0.997,0.034,-0.244,0.336,-0.366,100.000,148908.000,1.000
10.529,7.470,12.081,4.189,3.974,62.513,-0.404,0.728,0.003,0.996,0.030,-0.366,0.275,-0.427,100.000,148909.000,1.000
12.272,7.752,12.782,8.280,4.806,65.180,1.036,2.696,0.001,0.994,0.035,-0.275,0.336,-0.427,100.000,148910.000,1.000
14.110,8.081,13.536,12.219,5.840,67.012,1.560,4.742,0.002,0.995,0.035,-0.397,0.336,-0.458,100.000,148911.000,1.000
15.916,8.715,14.075,16.046,7.051,68.239,1.026,6.541,0.001,0.997,0.036,-0.427,0.153,-0.397,100.000,148912.000,1.000
17.739,10.113,14.552,20.009,8.591,69.349,-0.353,7.990,0.003,0.997,0.035,-0.366,0.092,-0.366,100.000,148913.000,1.000
19.595,12.393,15.135,24.416,10.235,70.630,-2.212,9.162,0.005,0.997,0.034,-0.366,0.153,-0.427,100.000,148914.000,1.000
21.623,15.451,16.115,29.607,11.961,72.291,-3.888,10.397,0.002,0.995,0.034,-0.366,0.122,-0.427,100.000,148915.000,1.000
23.789,18.726,17.469,35.550,13.765,74.390,-4.870,11.822,0.002,0.994,0.034,-0.427,0.183,-0.427,100.000,148916.000,1.000
25.695,21.199,18.568,41.603,15.227,76.673,-5.178,13.196,0.002,0.996,0.035,-0.336,0.092,-0.397,100.000,148917.000,1.000
26.965,22.149,18.896,46.845,16.093,78.748,-5.036,14.409,0.001,0.995,0.032,-0.336,0.214,-0.427,100.000,148918.000,1.000
27.332,21.391,18.090,50.474,16.071,80.313,-4.653,15.419,0.005,0.996,0.032,-0.244,0.183,-0.214,100.000,148919.000,1.000
26.986,19.582,16.506,52.353,15.429,81.429,-4.001,16.265,0.004,0.997,0.031,-0.275,0.153,-0.183,100.000,148920.000,1.000
26.320,17.483,14.830,52.980,14.554,82.186,-3.214,16.847,0.005,0.996,0.031,-0.244,0.092,-0.153,100.000,148921.000,1.000
25.607,15.353,13.382,53.102,13.318,82.446,-2.734,16.926,0.004,0.998,0.026,-0.244,0.092,-0.214,100.000,148922.000,1.000
25.150,13.469,12.426,53.438,11.664,82.206,-2.703,16.518,0.002,1.000,0.026,-0.366,0.153,-0.214,100.000,148923.000,1.000
25.105,12.212,11.913,54.382,9.500,81.798,-2.808,15.822,-0.001,0.998,0.026,-0.458,0.000,-0.183,100.000,148924.000,1.000
25.631,12.229,11.904,55.997,7.425,81.812,-2.409,15.255,-0.002,0.995,0.028,-0.427,-0.092,-0.183,100.000,148925.000,1.000
26.640,13.804,12.450,57.988,6.343,82.506,-1.228,15.140,-0.001,0.993,0.027,-0.458,-0.183,-0.397,100.000,148926.000,1.000
27.735,16.429,13.327,59.989,6.630,83.590,0.454,15.575,-0.002,0.992,0.029,-0.458,-0.153,-0.549,100.000,148927.000,1.000
28.712,19.373,14.551,62.046,8.353,84.664,2.467,16.747,-0.003,0.995,0.030,-0.519,-0.275,-0.488,100.000,148928.000,1.000
29.554,21.826,16.068,64.506,10.861,85.368,4.946,18.869,-0.004,0.996,0.031,-0.549,-0.244,-0.580,100.000,148929.000,1.000
30.476,23.306,18.016,67.636,13.458,85.423,8.136,22.102,-0.002,0.999,0.032,-0.671,-0.458,-0.793,100.000,148930.000,1.000
31.498,23.444,20.306,71.047,15.332,84.475,11.515,25.810,-0.003,0.997,0.031,-0.793,-0.519,-0.946,100.000,148931.000,1.000
32.231,21.902,22.159,73.664,15.433,82.175,13.605,28.289,-0.004,0.997,0.030,-0.946,-0.641,-1.038,100.000,148932.000,1.000
32.334,18.955,22.785,74.480,13.575,78.543,13.229,27.948,-0.004,0.997,0.031,-1.007,-0.763,-1.160,100.000,148933.000,1.000
31.602,15.308,21.647,73.185,10.408,74.090,10.558,24.541,-0.003,0.997,0.033,-1.068,-0.732,-1.282,100.000,148934.000,1.000
30.243,12.109,19.264,70.495,7.550,69.985,7.399,19.707,-0.002,0.997,0.036,-1.190,-0.824,-1.251,100.000,148935.000,1.000
28.666,10.343,16.852,67.638,6.433,67.494,6.051,15.825,-0.001,1.000,0.032,-1.404,-0.946,-1.343,100.000,148936.000,1.000
27.056,10.133,15.210,65.521,7.059,66.968,7.661,14.391,0.000,1.000,0.032,-1.465,-0.977,-1.221,100.000,148937.000,1.000
25.314,10.824,14.493,64.331,8.456,67.580,11.479,15.300,0.000,1.001,0.033,-1.526,-0.916,-1.251,100.000,148938.000,1.000
23.025,11.242,13.990,63.639,9.083,67.979,15.333,17.030,0.001,1.004,0.032,-1.617,-1.038,-1.282,100.000,148939.000,1.000
20.122,10.861,13.173,63.105,8.313,67.373,17.523,18.104,0.001,1.003,0.035,-1.740,-1.007,-1.129,100.000,148940.000,1.000
17.011,10.034,12.124,62.792,6.519,65.754,17.882,17.991,0.002,1.003,0.035,-1.801,-0.946,-1.129,100.000,148941.000,1.000
14.276,9.417,11.154,63.022,4.297,63.594,17.374,17.073,0.002,1.003,0.033,-1.923,-0.916,-1.099,100.000,148942.000,1.000
12.490,9.638,10.699,64.118,2.529,61.590,17.192,16.270,0.000,1.001,0.034,-2.045,-0.763,-0.885,100.000,148943.000,1.000
11.705,10.678,10.650,66.039,1.673,60.165,17.851,16.238,0.000,0.998,0.039,-1.984,-0.854,-0.946,100.000,148944.000,1.000
11.626,12.245,10.903,68.492,2.074,59.332,19.313,17.220,-0.001,0.997,0.038,-1.953,-0.793,-0.885,100.000,148945.000,1.000
11.785,13.944,11.481,71.089,3.661,58.595,21.238,18.968,-0.001,0.995,0.038,-1.892,-0.793,-0.793,100.000,148946.000,1.000
11.803,15.352,12.167,73.487,5.640,57.064,23.226,20.972,0.001,0.994,0.035,-1.831,-0.641,-0.702,100.000,148947.000,1.000
11.714,16.374,12.807,75.524,7.366,54.110,25.098,22.945,0.001,0.993,0.036,-1.862,-0.641,-0.580,100.000,148948.000,1.000
11.590,16.911,13.053,76.993,8.230,49.901,26.578,24.582,0.000,0.992,0.036,-1.862,-0.702,-0.580,100.000,148949.000,1.000
11.554,17.102,12.920,77.672,8.221,45.630,27.412,25.544,-0.001,0.992,0.034,-1.831,-0.671,-0.641,100.000,148950.000,1.000
11.670,17.232,12.733,77.426,7.753,43.001,27.594,25.618,-0.001,0.990,0.037,-1.740,-0.549,-0.549,100.000,148951.000,1.000
11.868,17.543,12.737,76.353,7.284,43.441,27.567,25.020,-0.001,0.989,0.034,-1.587,-0.671,-0.519,100.000,148952.000,1.000
12.122,18.351,13.314,74.850,7.630,47.343,28.177,24.440,0.002,0.986,0.035,-1.556,-0.641,-0.458,100.000,148953.000,1.000
12.196,19.524,14.349,73.275,9.028,53.446,29.930,24.314,0.000,0.986,0.036,-1.495,-0.549,-0.488,100.000,148954.000,1.000
11.948,20.711,15.529,71.841,11.270,59.400,32.667,24.731,0.000,0.985,0.040,-1.343,-0.519,-0.458,100.000,148955.000,1.000
11.355,21.498,16.556,70.581,13.863,63.045,35.578,25.531,0.002,0.987,0.035,-1.282,-0.610,-0.549,100.000,148956.000,1.000
10.398,21.620,17.203,69.439,16.218,63.652,37.826,26.560,0.001,0.987,0.035,-1.282,-0.488,-0.580,100.000,148957.000,1.000
9.233,21.414,17.720,68.430,18.274,62.266,39.322,28.016,0.002,0.985,0.036,-1.190,-0.458,-0.549,100.000,148958.000,1.000
8.020,21.337,18.134,67.430,19.715,60.509,40.375,29.980,0.002,0.987,0.033,-1.068,-0.366,-0.549,100.000,148959.000,1.000
6.991,21.829,18.308,66.167,20.228,59.300,41.133,32.061,0.003,0.989,0.035,-0.977,-0.458,-0.549,100.000,148960.000,1.000
6.255,23.016,18.046,64.338,19.606,58.500,41.223,33.286,0.001,0.990,0.034,-1.007,-0.305,-0.610,100.000,148961.000,1.000
5.774,24.663,17.301,61.947,17.857,57.587,40.173,32.807,0.000,0.993,0.032,-1.038,-0.214,-0.671,100.000,148962.000,1.000
5.605,26.409,16.594,59.346,15.691,56.113,37.901,30.665,0.002,0.994,0.035,-0.916,-0.214,-0.732,100.000,148963.000,1.000
5.600,27.413,16.109,56.673,13.475,53.423,34.315,27.252,0.003,0.996,0.033,-0.916,-0.214,-0.793,100.000,148964.000,1.000
5.645,27.061,15.849,53.863,11.404,49.133,29.633,23.169,0.003,0.996,0.033,-1.007,-0.183,-0.763,100.000,148965.000,1.000
5.692,25.455,15.860,50.890,9.668,43.772,24.825,19.375,0.001,0.997,0.032,-0.977,-0.122,-0.793,100.000,148966.000,1.000
5.660,23.331,16.136,47.871,8.351,38.692,21.357,17.005,0.000,0.998,0.033,-1.007,-0.061,-0.793,100.000,148967.000,1.000
5.633,21.858,16.885,45.020,7.759,35.351,20.387,16.820,0.000,0.997,0.036,-1.038,0.000,-0.824,100.000,148968.000,1.000
5.677,21.638,17.882,42.381,7.577,34.259,21.745,18.471,-0.001,0.997,0.034,-1.068,0.031,-0.793,100.000,148969.000,1.000
5.968,22.512,18.681,39.894,7.248,34.650,24.101,20.878,-0.004,0.997,0.034,-1.068,-0.031,-0.702,100.000,148970.000,1.000
6.631,23.670,18.801,37.455,6.269,34.954,25.758,22.835,-0.002,0.996,0.037,-1.068,0.000,-0.763,100.000,148971.000,1.000
7.640,24.221,17.999,35.015,4.403,33.923,25.659,23.516,-0.005,0.997,0.035,-1.068,-0.122,-0.824,100.000,148972.000,1.000
9.011,23.977,16.920,32.693,2.280,31.553,23.994,22.873,-0.005,0.998,0.036,-1.038,-0.244,-0.854,100.000,148973.000,1.000
10.552,23.159,16.342,30.601,0.461,28.807,21.624,21.354,-0.004,0.997,0.031,-1.068,-0.305,-0.885,100.000,148974.000,1.000
12.116,22.429,16.921,28.851,-0.522,26.865,19.612,19.827,-0.006,0.997,0.031,-1.160,-0.214,-0.793,100.000,148975.000,1.000
13.582,22.465,18.686,27.390,-0.417,26.301,18.677,19.095,-0.005,0.998,0.032,-1.068,-0.366,-0.854,100.000,148976.000,1.000
14.780,23.502,20.803,25.957,0.479,26.887,18.911,19.385,-0.005,0.996,0.033,-1.068,-0.488,-0.885,100.000,148977.000,1.000
15.757,25.544,22.574,24.381,2.015,28.021,19.979,20.415,-0.006,0.994,0.033,-1.068,-0.519,-0.824,100.000,148978.000,1.000
16.491,28.011,23.497,22.589,3.719,28.902,21.098,21.427,-0.004,0.992,0.031,-1.068,-0.610,-0.824,100.000,148979.000,1.000
16.983,29.984,23.485,20.647,5.078,28.835,21.566,21.773,-0.005,0.990,0.032,-1.007,-0.610,-0.671,100.000,148980.000,1.000
17.319,30.602,22.685,18.730,5.682,27.603,21.213,21.305,-0.002,0.990,0.032,-1.007,-0.610,-0.580,100.000,148981.000,1.000
17.712,29.703,21.412,17.096,5.453,25.666,20.558,20.552,-0.003,0.989,0.032,-1.099,-0.580,-0.610,100.000,148982.000,1.000
18.533,28.169,20.504,15.894,5.102,23.780,20.485,20.534,-0.002,0.992,0.032,-0.977,-0.580,-0.580,100.000,148983.000,1.000
19.774,26.855,20.345,14.775,4.897,22.199,21.152,21.671,-0.002,0.994,0.030,-1.007,-0.671,-0.397,100.000,148984.000,1.000
21.168,26.264,20.835,13.159,4.762,20.739,21.837,23.397,0.000,0.996,0.028,-1.038,-0.641,-0.397,100.000,148985.000,1.000
22.337,26.432,21.605,10.655,4.569,19.131,21.557,24.475,-0.002,0.992,0.028,-1.038,-0.488,-0.336,100.000,148986.000,1.000
22.903,26.965,22.197,7.328,4.173,17.230,19.916,23.900,0.000,0.991,0.028,-1.007,-0.549,-0.183,100.000,148987.000,1.000
22.697,27.484,22.579,3.653,3.802,15.134,17.499,21.688,0.002,0.990,0.028,-1.038,-0.458,-0.275,100.000,148988.000,1.000
21.503,27.470,22.557,0.016,3.350,13.016,15.244,18.525,0.002,0.992,0.029,-1.007,-0.519,-0.214,100.000,148989.000,1.000
19.414,26.761,22.085,-3.318,2.931,11.149,14.082,15.547,0.001,0.992,0.030,-0.854,-0.488,-0.336,100.000,148990.000,1.000
16.860,25.582,21.315,-6.200,2.836,9.546,14.310,13.793,0.000,0.994,0.029,-0.885,-0.397,-0.366,100.000,148991.000,1.000
14.338,24.189,20.239,-8.682,2.857,7.605,15.170,13.520,0.002,0.994,0.026,-0.916,-0.275,-0.336,100.000,148992.000,1.000
12.413,22.942,18.976,-10.927,2.660,4.616,15.480,14.191,0.000,0.995,0.031,-0.946,-0.275,-0.427,100.000,148993.000,1.000
11.337,21.939,17.428,-13.239,1.718,0.471,14.383,14.725,0.000,0.996,0.028,-1.038,-0.214,-0.397,100.000,148994.000,1.000
11.142,21.273,15.729,-15.839,0.236,-3.993,12.041,14.434,0.000,0.997,0.030,-1.160,-0.183,-0.519,100.000,148995.000,1.000
11.598,20.877,14.194,-18.767,-0.984,-7.677,9.349,13.387,0.000,0.997,0.032,-1.221,-0.122,-0.580,100.000,148996.000,1.000
12.230,20.367,13.006,-21.833,-1.369,-10.053,7.156,12.112,0.000,0.999,0.030,-1.312,-0.122,-0.702,100.000,148997.000,1.000
12.702,19.513,12.568,-24.612,-0.476,-11.259,5.965,11.258,0.000,1.000,0.029,-1.404,-0.153,-0.793,100.000,148998.000,1.000
12.764,18.198,12.973,-26.688,1.445,-12.069,5.873,11.127,-0.002,0.999,0.030,-1.373,0.000,-0.793,100.000,148999.000,1.000
12.443,16.783,14.202,-27.686,4.045,-13.630,6.921,11.866,-0.002,0.998,0.032,-1.434,-0.122,-0.793,100.000,149000.000,1.000
11.853,15.807,15.986,-27.583,6.980,-17.012,8.884,13.328,-0.002,0.999,0.028,-1.526,-0.122,-0.977,100.000,149001.000,1.000
10.953,15.442,17.494,-26.982,9.664,-22.461,11.017,14.851,-0.004,0.999,0.030,-1.617,-0.061,-0.977,100.000,149002.000,1.000
9.793,15.663,18.072,-26.720,11.863,-29.018,12.504,15.764,-0.004,0.998,0.032,-1.678,-0.061,-1.007,100.000,149003.000,1.000
8.469,16.217,17.411,-27.263,13.325,-35.117,12.925,15.880,-0.004,0.998,0.035,-1.801,-0.153,-1.068,100.000,149004.000,1.000
7.330,17.109,15.960,-28.371,14.196,-39.239,12.660,15.795,-0.006,0.999,0.034,-1.831,-0.122,-1.068,100.000,149005.000,1.000
6.631,18.295,14.339,-29.699,14.690,-40.632,12.278,16.070,-0.007,0.999,0.033,-1.923,-0.244,-1.068,100.000,149006.000,1.000
6.219,19.204,12.583,-31.343,14.583,-39.585,11.838,16.520,-0.005,1.001,0.032,-2.045,-0.305,-1.068,100.000,149007.000,1.000
5.948,19.286,10.764,-33.489,14.015,-36.817,11.184,16.686,-0.006,0.999,0.031,-2.075,-0.305,-1.129,100.000,149008.000,1.000
5.733,18.336,9.026,-35.998,13.250,-32.957,10.206,16.287,-0.005,0.999,0.031,-2.167,-0.336,-1.160,100.000,149009.000,1.000
5.784,17.000,7.930,-38.225,12.863,-28.299,9.150,15.617,-0.006,1.001,0.032,-2.258,-0.336,-1.221,100.000,149010.000,1.000
6.432,16.233,7.982,-39.496,13.162,-23.195,8.337,15.159,-0.007,0.999,0.031,-2.258,-0.488,-1.129,100.000,149011.000,1.000
7.779,16.339,8.896,-39.633,13.597,-18.633,7.618,14.934,-0.006,0.997,0.030,-2.411,-0.458,-1.038,100.000,149012.000,1.000
9.661,16.922,10.024,-38.931,13.648,-16.007,6.437,14.475,-0.006,0.998,0.034,-2.502,-0.488,-0.946,100.000,149013.000,1.000
11.398,17.026,10.458,-37.994,12.927,-16.154,4.308,13.125,-0.003,0.996,0.037,-2.533,-0.580,-0.854,100.000,149014.000,1.000
12.289,16.143,9.862,-37.382,11.754,-18.402,1.639,10.860,-0.003,0.995,0.035,-2.563,-0.610,-0.702,100.000,149015.000,1.000
12.008,14.543,8.610,-37.441,10.841,-21.059,-0.527,8.333,-0.001,0.994,0.034,-2.502,-0.641,-0.549,100.000,149016.000,1.000
10.748,12.879,7.184,-38.175,10.672,-22.656,-1.352,6.266,-0.001,0.995,0.031,-2.472,-0.641,-0.427,100.000,149017.000,1.000
9.242,11.823,6.044,-39.285,11.683,-22.684,-0.709,5.010,-0.003,0.996,0.033,-2.533,-0.580,-0.427,100.000,149018.000,1.000
7.997,11.208,4.918,-40.716,13.360,-21.832,0.308,3.963,-0.003,0.992,0.036,-2.533,-0.580,-0.519,100.000,149019.000,1.000
7.033,10.293,3.225,-42.795,14.628,-21.405,-0.093,1.937,-0.001,0.992,0.034,-2.502,-0.671,-0.366,100.000,149020.000,1.000
5.893,8.284,0.419,-45.905,14.433,-22.513,-3.287,-2.039,-0.001,0.992,0.037,-2.502,-0.671,-0.366,100.000,149021.000,1.000
4.136,4.911,-3.741,-49.864,12.297,-25.404,-9.196,-8.053,0.001,0.993,0.037,-2.533,-0.458,-0.275,100.000,149022.000,1.000
2.079,1.003,-8.407,-53.657,9.125,-29.255,-16.046,-15.354,0.001,0.994,0.037,-2.472,-0.458,-0.214,100.000,149023.000,1.000
0.436,-2.245,-12.311,-56.126,6.111,-32.780,-21.536,-23.184,0.001,0.993,0.038,-2.289,-0.366,-0.244,100.000,149024.000,1.000
-0.094,-3.753,-14.122,-56.584,4.361,-34.763,-23.954,-30.757,0.001,0.991,0.040,-2.167,-0.336,-0.275,100.000,149025.000,1.000
0.677,-3.132,-13.053,-55.124,4.456,-34.564,-22.953,-37.204,0.002,0.992,0.039,-2.167,-0.214,-0.305,100.000,149026.000,1.000
2.279,-0.927,-9.537,-52.524,6.049,-32.393,-19.527,-41.851,-0.001,0.994,0.038,-2.197,-0.244,-0.427,100.000,149027.000,1.000
4.138,1.950,-4.801,-49.876,8.491,-29.172,-15.274,-44.346,0.000,0.993,0.037,-2.197,-0.183,-0.488,100.000,149028.000,1.000
5.696,4.366,-0.654,-48.235,10.705,-26.246,-11.886,-44.918,-0.001,0.996,0.039,-1.984,-0.214,-0.488,100.000,149029.000,1.000
6.704,5.697,1.748,-47.995,12.077,-24.537,-10.296,-43.995,-0.001,0.997,0.040,-2.014,-0.153,-0.488,100.000,149030.000,1.000
7.084,6.018,2.337,-48.798,12.526,-24.126,-10.375,-42.115,-0.002,0.997,0.037,-2.014,-0.183,-0.488,100.000,149031.000,1.000
6.754,5.711,1.593,-49.955,11.917,-24.740,-11.325,-39.961,0.000,0.997,0.038,-2.045,-0.183,-0.549,100.000,149032.000,1.000
5.895,5.272,0.420,-50.782,10.474,-26.895,-12.168,-37.883,0.000,0.995,0.036,-2.075,-0.122,-0.641,100.000,149033.000,1.000
4.737,4.663,-0.721,-50.956,8.389,-32.735,-12.366,-35.805,0.000,0.997,0.036,-1.984,-0.153,-0.702,100.000,149034.000,1.000
3.653,3.698,-1.640,-50.511,6.332,-43.922,-11.707,-33.261,0.001,0.998,0.035,-1.923,-0.183,-0.702,100.000,149035.000,1.000
3.045,2.431,-2.189,-49.725,5.234,-58.342,-10.208,-29.909,-0.002,0.998,0.036,-2.014,-0.122,-0.732,100.000,149036.000,1.000
3.004,1.149,-2.452,-48.966,5.375,-70.346,-8.253,-25.887,-0.003,0.998,0.037,-1.984,-0.031,-0.702,100.000,149037.000,1.000
3.282,0.322,-2.512,-48.492,6.505,-74.580,-6.432,-21.586,-0.002,0.996,0.041,-2.045,-0.061,-0.763,100.000,149038.000,1.000
3.304,0.039,-2.817,-48.404,7.677,-69.295,-5.374,-17.527,-0.001,0.993,0.037,-1.953,0.000,-0.763,100.000,149039.000,1.000
2.889,0.255,-3.542,-48.419,8.317,-56.748,-5.233,-13.903,0.000,0.992,0.034,-1.923,-0.153,-0.732,100.000,149040.000,1.000
2.373,0.774,-4.340,-48.016,8.469,-41.881,-5.748,-10.657,-0.001,0.995,0.035,-1.862,-0.122,-0.824,100.000,149041.000,1.000
2.167,1.138,-4.763,-46.805,8.291,-29.834,-6.493,-7.816,-0.003,0.996,0.036,-1.801,-0.092,-0.793,100.000,149042.000,1.000
2.483,0.994,-4.362,-44.761,8.173,-23.322,-7.009,-5.430,-0.004,0.996,0.037,-1.678,-0.153,-0.854,100.000,149043.000,1.000
2.956,-0.095,-3.563,-42.449,7.863,-22.010,-7.396,-3.745,-0.003,0.994,0.038,-1.648,-0.122,-0.824,100.000,149044.000,1.000
3.103,-2.205,-3.193,-40.705,6.908,-23.747,-8.161,-2.957,-0.002,0.993,0.039,-1.770,-0.244,-0.854,100.000,149045.000,1.000
2.585,-5.009,-3.845,-40.221,5.071,-26.615,-9.736,-3.101,-0.003,0.995,0.036,-1.678,-0.305,-0.793,100.000,149046.000,1.000
1.103,-8.099,-5.707,-41.219,2.285,-29.980,-12.188,-3.987,-0.002,0.996,0.035,-1.648,-0.336,-0.824,100.000,149047.000,1.000
-1.388,-10.901,-8.192,-43.240,-0.894,-33.766,-15.054,-5.049,-0.001,0.997,0.036,-1.556,-0.305,-0.824,100.000,149048.000,1.000
-4.681,-13.061,-10.669,-45.461,-3.958,-37.394,-17.660,-5.731,-0.003,0.997,0.036,-1.617,-0.336,-0.732,100.000,149049.000,1.000
-7.994,-14.230,-12.455,-46.955,-6.200,-39.543,-19.189,-5.483,-0.002,0.997,0.036,-1.648,-0.336,-0.671,100.000,149050.000,1.000
-10.298,-14.293,-13.029,-47.070,-7.069,-39.369,-19.191,-4.041,-0.001,0.996,0.040,-1.526,-0.336,-0.641,100.000,149051.000,1.000
